time,TP9,AF7,AF8,TP10,Right AUX
1694738993.3105319,13.671875,-32.71484375,-95.21484375,-3.90625,0.0
1694738993.3144336,2.9296875,-38.0859375,-97.16796875,-11.71875,0.0
1694738993.3183353,7.32421875,-35.15625,-94.7265625,-1.953125,0.0
1694738993.3222373,10.25390625,-37.59765625,-93.26171875,-0.9765625,0.0
1694738993.326139,-5.37109375,-48.33984375,-93.75,9.765625,0.0
1694738993.3300407,-2.9296875,-42.96875,-92.7734375,20.99609375,0.0
1694738993.3339424,16.6015625,-41.50390625,-92.28515625,3.90625,0.0
1694738993.3378444,20.01953125,-40.0390625,-91.796875,4.39453125,0.0
1694738993.341746,5.37109375,-35.64453125,-95.703125,-9.27734375,0.0
1694738993.3456478,-10.7421875,-45.41015625,-99.12109375,-16.6015625,0.0
1694738993.3495495,-22.94921875,-65.91796875,-93.26171875,9.27734375,0.0
1694738993.3534515,-9.27734375,-58.59375,-102.05078125,3.90625,0.0
1694738993.357412,-6.34765625,-49.8046875,-97.65625,-1.953125,0.0
1694738993.3613138,-7.32421875,-55.17578125,-96.6796875,6.34765625,0.0
1694738993.3652155,-4.39453125,-49.31640625,-96.6796875,9.765625,0.0
1694738993.3691173,-8.30078125,-46.875,-90.8203125,5.859375,0.0
1694738993.3730192,-7.8125,-54.6875,-97.65625,0.0,0.0
1694738993.376921,-8.7890625,-66.89453125,-102.05078125,12.6953125,0.0
1694738993.3808227,-0.48828125,-69.82421875,-93.75,16.11328125,0.0
1694738993.3847244,15.13671875,-56.640625,-92.7734375,6.8359375,0.0
1694738993.3886263,19.53125,-48.828125,-91.30859375,7.32421875,0.0
1694738993.392528,9.27734375,-60.546875,-87.40234375,5.37109375,0.0
1694738993.3964298,7.8125,-56.15234375,-85.9375,-1.46484375,0.0
1694738993.4003317,4.8828125,-50.78125,-88.8671875,-2.44140625,0.0
1694738993.4042954,-11.23046875,-65.91796875,-91.796875,3.41796875,0.0
1694738993.4081974,-4.39453125,-66.89453125,-90.33203125,-5.37109375,0.0
1694738993.4120991,15.13671875,-51.7578125,-90.8203125,-3.41796875,0.0
1694738993.4160008,17.578125,-41.9921875,-90.8203125,11.23046875,0.0
1694738993.4199026,13.671875,-46.38671875,-92.7734375,15.13671875,0.0
1694738993.4238045,5.859375,-53.22265625,-93.26171875,21.484375,0.0
1694738993.4277062,2.44140625,-59.5703125,-88.8671875,19.53125,0.0
1694738993.431608,6.34765625,-41.50390625,-90.8203125,4.39453125,0.0
1694738993.43551,12.20703125,-29.296875,-102.05078125,-3.90625,0.0
1694738993.4394116,11.23046875,-43.45703125,-101.5625,9.27734375,0.0
1694738993.4433134,5.859375,-36.1328125,-92.7734375,7.8125,0.0
1694738993.447215,11.23046875,-31.73828125,-87.40234375,9.27734375,0.0
1694738993.4511726,32.2265625,-32.71484375,-74.70703125,30.2734375,0.0
1694738993.4550743,23.92578125,-23.4375,-70.3125,25.87890625,0.0
1694738993.458976,0.48828125,-19.53125,-80.078125,5.37109375,0.0
1694738993.462878,-16.11328125,-25.390625,-82.51953125,-8.30078125,0.0
1694738993.4667797,-5.37109375,-30.76171875,-84.47265625,-5.859375,0.0
1694738993.4706814,6.8359375,-23.92578125,-84.47265625,2.44140625,0.0
1694738993.4745831,-6.8359375,-18.06640625,-76.66015625,4.8828125,0.0
1694738993.478485,-2.9296875,-11.23046875,-75.1953125,12.20703125,0.0
1694738993.4823868,-6.34765625,-21.484375,-80.56640625,14.16015625,0.0
1694738993.4862885,-11.71875,-30.76171875,-84.47265625,7.8125,0.0
1694738993.4901905,-7.32421875,-21.484375,-88.37890625,-1.46484375,0.0
1694738993.4940922,7.8125,-15.625,-90.33203125,4.39453125,0.0
1694738993.4980423,8.7890625,-17.578125,-84.9609375,11.23046875,0.0
1694738993.501944,-2.9296875,-15.625,-83.49609375,10.7421875,0.0
1694738993.5058458,-7.32421875,-19.04296875,-81.0546875,16.6015625,0.0
1694738993.5097477,-11.23046875,-28.80859375,-84.47265625,0.0,0.0
1694738993.5136495,-8.7890625,-32.71484375,-91.796875,-9.27734375,0.0
1694738993.5175512,-13.18359375,-36.62109375,-85.44921875,1.953125,0.0
1694738993.5214531,-24.90234375,-39.0625,-83.0078125,-2.44140625,0.0
1694738993.5253549,-11.71875,-33.69140625,-89.35546875,-5.37109375,0.0
1694738993.5292566,-6.34765625,-29.78515625,-91.30859375,1.953125,0.0
1694738993.5331583,-11.23046875,-17.08984375,-93.26171875,0.9765625,0.0
1694738993.5370603,-10.25390625,-14.6484375,-96.6796875,0.9765625,0.0
1694738993.540962,-11.71875,-19.53125,-96.19140625,-3.41796875,0.0
1694738993.5449054,-20.99609375,-21.484375,-103.515625,-5.37109375,0.0
1694738993.5488074,-28.3203125,-42.96875,-104.98046875,-4.39453125,0.0
1694738993.552709,-27.34375,-43.45703125,-108.3984375,-2.44140625,0.0
1694738993.5566108,-10.7421875,-21.484375,-106.93359375,1.953125,0.0
1694738993.5605125,8.30078125,-13.671875,-93.75,4.8828125,0.0
1694738993.5644145,-0.9765625,-15.13671875,-99.609375,6.8359375,0.0
1694738993.5683162,-0.48828125,-14.6484375,-97.16796875,6.8359375,0.0
1694738993.572218,11.23046875,-16.11328125,-92.7734375,9.27734375,0.0
1694738993.57612,-8.7890625,-20.99609375,-94.7265625,11.23046875,0.0
1694738993.5800216,-15.13671875,-34.66796875,-87.40234375,19.53125,0.0
1694738993.5839233,9.765625,-42.96875,-89.35546875,16.6015625,0.0
1694738993.5878253,9.765625,-38.0859375,-94.23828125,-1.953125,0.0
1694738993.591781,-7.32421875,-39.55078125,-96.19140625,-13.671875,0.0
1694738993.5956826,-18.06640625,-44.43359375,-92.28515625,-28.80859375,0.0
1694738993.5995846,-8.30078125,-49.31640625,-93.26171875,-27.83203125,0.0
1694738993.6034863,-6.8359375,-51.7578125,-96.6796875,-19.53125,0.0
1694738993.607388,-10.7421875,-56.640625,-96.19140625,-19.53125,0.0
1694738993.61129,-16.11328125,-65.91796875,-101.5625,-20.99609375,0.0
1694738993.6151917,-24.90234375,-68.359375,-107.91015625,-12.20703125,0.0
1694738993.6190934,-16.11328125,-70.3125,-104.00390625,1.46484375,0.0
1694738993.6229954,-19.53125,-65.4296875,-99.12109375,-12.20703125,0.0
1694738993.626897,-13.18359375,-58.59375,-98.14453125,-15.625,0.0
1694738993.6307988,-1.46484375,-64.453125,-97.65625,-8.7890625,0.0
1694738993.6347008,-9.27734375,-70.80078125,-96.6796875,-13.671875,0.0
1694738993.6386416,-14.6484375,-67.87109375,-92.28515625,-5.37109375,0.0
1694738993.6425433,-14.16015625,-69.82421875,-88.37890625,-3.90625,0.0
1694738993.646445,-8.30078125,-71.2890625,-91.796875,-2.9296875,0.0
1694738993.650347,-0.48828125,-69.3359375,-101.5625,-3.41796875,0.0
1694738993.6542487,-5.859375,-70.80078125,-97.65625,-5.37109375,0.0
1694738993.6581504,-2.44140625,-71.2890625,-92.28515625,-1.46484375,0.0
1694738993.6620524,6.8359375,-69.82421875,-94.7265625,-0.48828125,0.0
1694738993.665954,-1.46484375,-71.77734375,-90.8203125,-5.37109375,0.0
1694738993.6698558,-10.7421875,-76.66015625,-92.7734375,2.9296875,0.0
1694738993.6737578,-10.25390625,-82.03125,-95.21484375,-0.48828125,0.0
1694738993.6776595,2.9296875,-69.82421875,-93.75,-14.16015625,0.0
1694738993.6815612,8.30078125,-61.5234375,-93.26171875,-19.04296875,0.0
1694738993.6854942,-1.953125,-68.84765625,-87.890625,-16.6015625,0.0
1694738993.689396,10.7421875,-70.80078125,-87.40234375,-4.8828125,0.0
1694738993.6932979,13.671875,-71.77734375,-92.7734375,-5.37109375,0.0
1694738993.6971996,5.37109375,-68.84765625,-90.33203125,-9.27734375,0.0
1694738993.7011013,12.20703125,-70.3125,-91.796875,-8.7890625,0.0
1694738993.7050033,6.8359375,-75.68359375,-86.9140625,2.9296875,0.0
1694738993.708905,-0.9765625,-83.49609375,-82.03125,1.953125,0.0
1694738993.7128067,-4.8828125,-78.61328125,-83.984375,-4.39453125,0.0
1694738993.7167087,1.46484375,-63.4765625,-84.47265625,-9.27734375,0.0
1694738993.7206104,6.8359375,-76.66015625,-78.125,-1.46484375,0.0
1694738993.724512,16.6015625,-82.03125,-73.2421875,5.37109375,0.0
1694738993.728414,19.53125,-73.73046875,-75.68359375,-4.8828125,0.0
1694738993.7323773,9.765625,-77.1484375,-77.63671875,-5.859375,0.0
1694738993.7362792,-7.32421875,-76.66015625,-80.078125,-10.25390625,0.0
1694738993.740181,-13.18359375,-77.63671875,-80.56640625,-20.99609375,0.0
1694738993.7440827,-11.23046875,-73.2421875,-79.58984375,-23.4375,0.0
1694738993.7479846,-21.97265625,-78.61328125,-76.171875,-4.39453125,0.0
1694738993.7518864,-8.7890625,-90.33203125,-75.68359375,17.08984375,0.0
1694738993.7557883,-3.90625,-86.42578125,-83.49609375,0.9765625,0.0
1694738993.75969,-15.13671875,-74.21875,-81.54296875,-3.41796875,0.0
1694738993.7635918,-4.39453125,-76.171875,-79.1015625,17.08984375,0.0
1694738993.7674937,-3.41796875,-84.47265625,-84.9609375,9.765625,0.0
1694738993.7713954,-16.6015625,-71.2890625,-77.63671875,-3.41796875,0.0
1694738993.7752972,-19.04296875,-62.01171875,-75.68359375,-1.46484375,0.0
1694738993.7792542,-16.6015625,-65.91796875,-76.171875,-1.953125,0.0
1694738993.783156,-0.9765625,-68.84765625,-76.66015625,2.9296875,0.0
1694738993.7870579,-0.9765625,-66.89453125,-82.03125,-2.44140625,0.0
1694738993.7909596,-1.953125,-62.5,-83.0078125,-16.6015625,0.0
1694738993.7948616,1.46484375,-61.5234375,-81.54296875,-20.01953125,0.0
1694738993.7987633,-5.859375,-71.2890625,-82.51953125,-18.06640625,0.0
1694738993.802665,-6.8359375,-67.87109375,-81.0546875,-7.32421875,0.0
1694738993.806567,-7.8125,-62.01171875,-80.078125,-5.859375,0.0
1694738993.8104687,-1.46484375,-73.2421875,-90.33203125,-10.7421875,0.0
1694738993.8143704,-0.48828125,-71.77734375,-93.75,-17.578125,0.0
1694738993.8182724,-13.18359375,-53.22265625,-91.796875,-15.13671875,0.0
1694738993.822174,-21.97265625,-54.19921875,-94.23828125,-9.27734375,0.0
1694738993.8261416,-16.11328125,-62.98828125,-91.796875,-6.8359375,0.0
1694738993.8300436,0.9765625,-60.05859375,-85.44921875,-1.46484375,0.0
1694738993.8339453,-1.46484375,-55.17578125,-87.890625,0.0,0.0
1694738993.837847,-5.859375,-60.546875,-86.9140625,1.46484375,0.0
1694738993.841749,-8.7890625,-64.94140625,-82.03125,-6.8359375,0.0
1694738993.8456507,-16.6015625,-60.05859375,-84.9609375,-23.4375,0.0
1694738993.8495524,-24.90234375,-63.4765625,-85.9375,-26.85546875,0.0
1694738993.8534544,-20.99609375,-63.96484375,-85.44921875,-16.6015625,0.0
1694738993.857356,-11.23046875,-64.94140625,-81.0546875,-14.6484375,0.0
1694738993.861258,-14.16015625,-65.91796875,-79.58984375,-20.01953125,0.0
1694738993.8651597,-27.34375,-66.89453125,-85.44921875,-18.06640625,0.0
1694738993.8690615,-17.08984375,-68.84765625,-82.03125,-6.8359375,0.0
1694738993.8730142,-2.44140625,-69.82421875,-75.68359375,4.8828125,0.0
1694738993.876916,-11.23046875,-62.01171875,-74.70703125,-5.859375,0.0
1694738993.880818,-14.16015625,-56.15234375,-76.66015625,-23.92578125,0.0
1694738993.8847196,-9.27734375,-61.5234375,-72.265625,-17.08984375,0.0
1694738993.8886213,-11.71875,-62.98828125,-71.2890625,-7.32421875,0.0
1694738993.8925233,-12.20703125,-64.453125,-75.68359375,-18.06640625,0.0
1694738993.896425,3.90625,-59.08203125,-81.0546875,-20.99609375,0.0
1694738993.900327,1.953125,-57.6171875,-89.84375,-22.4609375,0.0
1694738993.9042287,-20.5078125,-56.640625,-90.33203125,-28.80859375,0.0
1694738993.9081304,-23.92578125,-59.08203125,-90.33203125,-22.94921875,0.0
1694738993.9120324,-20.5078125,-62.01171875,-91.796875,-6.34765625,0.0
1694738993.915934,-21.97265625,-64.453125,-92.28515625,-4.8828125,0.0
1694738993.9198802,-15.625,-64.453125,-97.65625,-9.765625,0.0
1694738993.9237819,-10.25390625,-54.19921875,-98.6328125,-17.08984375,0.0
1694738993.9276836,-16.11328125,-59.08203125,-99.12109375,-20.99609375,0.0
1694738993.9315856,-13.671875,-73.73046875,-93.75,-15.625,0.0
1694738993.9354873,-15.13671875,-75.68359375,-87.40234375,-19.53125,0.0
1694738993.9393892,-25.87890625,-77.63671875,-88.8671875,-16.11328125,0.0
1694738993.943291,-14.16015625,-73.2421875,-90.8203125,-15.625,0.0
1694738993.9471927,-14.16015625,-80.078125,-94.23828125,-18.06640625,0.0
1694738993.9510946,-27.34375,-78.125,-87.890625,-17.578125,0.0
1694738993.9549963,-18.5546875,-68.84765625,-82.03125,-15.13671875,0.0
1694738993.9588983,-16.11328125,-81.0546875,-89.35546875,-13.671875,0.0
1694738993.9628,-12.20703125,-85.44921875,-93.26171875,-19.04296875,0.0
1694738993.9667392,-7.8125,-73.2421875,-91.30859375,-17.08984375,0.0
1694738993.9706411,-22.94921875,-66.89453125,-84.47265625,-15.625,0.0
1694738993.9745429,-10.25390625,-69.82421875,-80.078125,-13.671875,0.0
1694738993.9784448,0.0,-78.125,-82.03125,-4.8828125,0.0
1694738993.9823465,-9.765625,-82.03125,-80.56640625,-1.46484375,0.0
1694738993.9862483,-9.27734375,-76.171875,-80.56640625,-0.9765625,0.0
1694738993.9901502,-0.48828125,-75.68359375,-75.1953125,1.46484375,0.0
1694738993.994052,-1.953125,-83.984375,-73.2421875,5.37109375,0.0
1694738993.997954,-0.48828125,-72.75390625,-77.1484375,7.32421875,0.0
1694738994.0018556,2.44140625,-62.98828125,-82.03125,4.39453125,0.0
1694738994.0057576,-14.6484375,-75.1953125,-83.984375,-5.37109375,0.0
1694738994.0096593,-20.5078125,-78.125,-82.51953125,-11.71875,0.0
1694738994.0136287,-16.6015625,-73.73046875,-81.54296875,-3.41796875,0.0
1694738994.0175304,-14.6484375,-76.66015625,-80.078125,-4.8828125,0.0
1694738994.0214324,-9.765625,-69.3359375,-75.1953125,-1.953125,0.0
1694738994.0253341,-6.34765625,-57.12890625,-76.66015625,-4.8828125,0.0
1694738994.029236,-16.6015625,-61.03515625,-83.0078125,-16.6015625,0.0
1694738994.0331378,-24.4140625,-79.1015625,-87.890625,-16.11328125,0.0
1694738994.0370398,-19.53125,-84.9609375,-83.0078125,-8.30078125,0.0
1694738994.0409415,-4.39453125,-65.91796875,-75.1953125,-9.27734375,0.0
1694738994.0448432,-0.48828125,-62.01171875,-79.1015625,-15.13671875,0.0
1694738994.0487452,-5.859375,-60.05859375,-82.51953125,-32.2265625,0.0
1694738994.0526469,-8.7890625,-62.98828125,-82.03125,-20.01953125,0.0
1694738994.0565488,-15.625,-63.4765625,-70.3125,-3.90625,0.0
1694738994.0604846,-9.765625,-54.6875,-64.453125,-12.6953125,0.0
1694738994.0643866,-4.8828125,-50.29296875,-68.84765625,-13.671875,0.0
1694738994.0682883,-9.27734375,-47.8515625,-69.82421875,-16.11328125,0.0
1694738994.0721903,-20.5078125,-60.546875,-80.56640625,-23.92578125,0.0
1694738994.076092,-25.87890625,-65.4296875,-72.265625,-26.85546875,0.0
1694738994.079994,-27.83203125,-49.8046875,-56.640625,-19.53125,0.0
1694738994.0838957,-38.0859375,-60.05859375,-60.546875,-24.4140625,0.0
1694738994.0877976,-40.0390625,-72.75390625,-67.87109375,-41.50390625,0.0
1694738994.0916994,-41.50390625,-63.4765625,-58.10546875,-38.57421875,0.0
1694738994.095601,-44.921875,-57.12890625,-51.26953125,-34.66796875,0.0
1694738994.099503,-54.19921875,-61.03515625,-58.10546875,-50.29296875,0.0
1694738994.1034048,-90.33203125,-69.82421875,-68.84765625,-87.890625,0.0
1694738994.1073694,-97.65625,-76.66015625,-74.21875,-100.09765625,0.0
1694738994.1112714,-74.21875,-70.80078125,-68.84765625,-82.51953125,0.0
1694738994.115173,-84.9609375,-58.10546875,-65.91796875,-87.890625,0.0
1694738994.119075,-108.3984375,-55.17578125,-66.89453125,-100.5859375,0.0
1694738994.1229768,-98.14453125,-55.17578125,-66.89453125,-89.84375,0.0
1694738994.1268785,-93.75,-56.640625,-72.75390625,-87.890625,0.0
1694738994.1307805,-108.3984375,-57.6171875,-88.37890625,-100.09765625,0.0
1694738994.1346822,-101.5625,-52.24609375,-91.30859375,-98.6328125,0.0
1694738994.1385841,-81.0546875,-46.875,-86.42578125,-98.6328125,0.0
1694738994.1424859,-81.54296875,-58.10546875,-82.51953125,-86.42578125,0.0
1694738994.1463878,-85.9375,-70.80078125,-83.49609375,-80.56640625,0.0
1694738994.1502895,-79.58984375,-67.87109375,-84.47265625,-83.0078125,0.0
1694738994.1542485,-74.21875,-69.3359375,-77.1484375,-67.87109375,0.0
1694738994.1581502,-62.98828125,-76.66015625,-88.8671875,-72.265625,0.0
1694738994.1620522,-50.29296875,-69.3359375,-102.05078125,-65.91796875,0.0
1694738994.1659539,-41.50390625,-60.546875,-92.7734375,-42.96875,0.0
1694738994.1698558,-36.62109375,-60.546875,-88.37890625,-37.59765625,0.0
1694738994.1737576,-30.76171875,-56.640625,-100.5859375,-27.83203125,0.0
1694738994.1776595,-29.296875,-53.7109375,-109.86328125,-19.53125,0.0
1694738994.1815612,-27.34375,-50.78125,-96.19140625,-25.87890625,0.0
1694738994.1854632,-24.4140625,-56.640625,-90.33203125,-27.83203125,0.0
1694738994.189365,-9.765625,-53.22265625,-94.7265625,-17.08984375,0.0
1694738994.1932669,11.71875,-40.52734375,-93.75,-13.18359375,0.0
1694738994.1971686,4.8828125,-44.43359375,-97.65625,-0.9765625,0.0
1694738994.2011209,-20.5078125,-59.5703125,-98.14453125,16.11328125,0.0
1694738994.2050226,-13.18359375,-68.359375,-100.09765625,16.11328125,0.0
1694738994.2089245,0.48828125,-57.12890625,-115.72265625,13.671875,0.0
1694738994.2128263,4.39453125,-49.31640625,-120.1171875,6.8359375,0.0
1694738994.2167282,0.0,-56.15234375,-120.1171875,-11.23046875,0.0
1694738994.22063,2.44140625,-68.84765625,-133.30078125,-0.9765625,0.0
1694738994.224532,7.8125,-70.80078125,-128.41796875,17.578125,0.0
1694738994.2284336,12.20703125,-60.546875,-106.4453125,14.16015625,0.0
1694738994.2323356,7.32421875,-65.4296875,-109.375,15.13671875,0.0
1694738994.2362373,8.7890625,-63.96484375,-105.95703125,14.16015625,0.0
1694738994.2401392,12.6953125,-47.36328125,-98.6328125,14.6484375,0.0
1694738994.244041,8.7890625,-47.36328125,-108.88671875,7.32421875,0.0
1694738994.2479959,16.11328125,-55.6640625,-117.1875,0.48828125,0.0
1694738994.2518976,8.30078125,-49.31640625,-119.62890625,-5.859375,0.0
1694738994.2557995,2.44140625,-50.78125,-122.0703125,-4.39453125,0.0
1694738994.2597013,13.18359375,-54.19921875,-129.39453125,2.9296875,0.0
1694738994.2636032,16.6015625,-58.10546875,-131.8359375,1.953125,0.0
1694738994.267505,19.04296875,-62.01171875,-124.0234375,8.30078125,0.0
1694738994.271407,18.06640625,-63.96484375,-125.48828125,15.625,0.0
1694738994.2753088,11.71875,-58.10546875,-125.9765625,14.16015625,0.0
1694738994.2792106,20.01953125,-54.19921875,-132.8125,12.6953125,0.0
1694738994.2831125,24.90234375,-50.29296875,-136.23046875,19.04296875,0.0
1694738994.2870142,20.5078125,-51.26953125,-140.625,16.11328125,0.0
1694738994.2909162,8.7890625,-64.453125,-146.484375,7.8125,0.0
1694738994.2948644,6.8359375,-62.01171875,-135.25390625,14.6484375,0.0
1694738994.2987661,14.16015625,-48.828125,-136.71875,7.8125,0.0
1694738994.302668,7.32421875,-50.78125,-132.32421875,14.16015625,0.0
1694738994.3065698,9.765625,-55.6640625,-132.8125,23.4375,0.0
1694738994.3104718,6.34765625,-56.15234375,-146.97265625,20.99609375,0.0
1694738994.3143735,4.39453125,-55.6640625,-145.99609375,23.4375,0.0
1694738994.3182755,1.953125,-60.05859375,-135.25390625,16.11328125,0.0
1694738994.3221772,5.859375,-65.91796875,-139.16015625,10.7421875,0.0
1694738994.3260791,18.5546875,-53.7109375,-141.11328125,11.23046875,0.0
1694738994.3299809,8.30078125,-54.19921875,-141.6015625,10.25390625,0.0
1694738994.3338828,-2.44140625,-62.98828125,-135.25390625,6.34765625,0.0
1694738994.3377845,3.90625,-66.40625,-129.8828125,-1.953125,0.0
1694738994.3417268,18.06640625,-64.453125,-129.8828125,-8.7890625,0.0
1694738994.3456285,9.765625,-62.5,-125.0,-0.48828125,0.0
1694738994.3495305,2.44140625,-69.82421875,-126.953125,2.9296875,0.0
1694738994.3534322,4.39453125,-71.77734375,-132.8125,-7.32421875,0.0
1694738994.3573341,-4.39453125,-67.87109375,-138.18359375,-14.6484375,0.0
1694738994.3612359,-12.20703125,-70.3125,-142.08984375,-15.13671875,0.0
1694738994.3651378,-4.8828125,-76.171875,-139.16015625,-11.71875,0.0
1694738994.3690398,-0.48828125,-72.75390625,-134.765625,0.48828125,0.0
1694738994.3729415,-11.71875,-58.10546875,-125.9765625,-1.46484375,0.0
1694738994.3768435,-19.53125,-58.10546875,-122.55859375,-4.39453125,0.0
1694738994.3807452,-11.71875,-62.98828125,-122.0703125,6.8359375,0.0
1694738994.3846471,-2.9296875,-63.4765625,-112.3046875,5.859375,0.0
1694738994.3885827,-3.41796875,-66.40625,-110.83984375,0.0,0.0
1694738994.3924844,-12.6953125,-62.5,-118.1640625,-8.30078125,0.0
1694738994.3963864,-14.16015625,-57.6171875,-120.60546875,-2.9296875,0.0
1694738994.400288,-1.953125,-62.5,-117.1875,13.671875,0.0
1694738994.40419,-5.37109375,-61.5234375,-116.2109375,4.8828125,0.0
1694738994.4080918,-15.625,-57.12890625,-125.0,-9.27734375,0.0
1694738994.4119937,-8.30078125,-71.77734375,-125.48828125,2.44140625,0.0
1694738994.4158955,-8.30078125,-71.2890625,-111.81640625,0.48828125,0.0
1694738994.4197974,-15.13671875,-63.96484375,-103.515625,-11.71875,0.0
1694738994.4236991,-13.671875,-73.73046875,-101.07421875,-11.71875,0.0
1694738994.427601,0.48828125,-65.91796875,-93.26171875,-1.46484375,0.0
1694738994.431503,-4.39453125,-57.12890625,-90.8203125,6.34765625,0.0
1694738994.4354408,-20.99609375,-56.640625,-94.23828125,2.9296875,0.0
1694738994.4393425,-18.5546875,-55.6640625,-94.23828125,-5.37109375,0.0
1694738994.4432445,-4.39453125,-60.05859375,-92.28515625,-15.625,0.0
1694738994.4471462,2.9296875,-56.15234375,-84.9609375,-12.6953125,0.0
1694738994.4510481,-6.8359375,-55.17578125,-81.54296875,-16.6015625,0.0
1694738994.4549499,-1.953125,-62.98828125,-85.44921875,-16.6015625,0.0
1694738994.4588518,1.46484375,-62.98828125,-89.84375,-2.9296875,0.0
1694738994.4627535,-4.8828125,-62.5,-89.35546875,1.953125,0.0
1694738994.4666555,-1.46484375,-61.03515625,-89.35546875,-7.8125,0.0
1694738994.4705575,4.39453125,-63.4765625,-87.40234375,-8.30078125,0.0
1694738994.4744592,-2.44140625,-71.77734375,-80.56640625,-10.7421875,0.0
1694738994.4783611,-11.71875,-62.98828125,-79.58984375,-24.90234375,0.0
1694738994.4823277,-13.671875,-56.15234375,-79.1015625,-27.34375,0.0
1694738994.4862297,-19.04296875,-62.01171875,-80.56640625,-22.94921875,0.0
1694738994.4901314,-16.11328125,-54.6875,-80.078125,-24.4140625,0.0
1694738994.4940333,-15.625,-48.33984375,-75.68359375,-27.34375,0.0
1694738994.497935,-19.04296875,-63.4765625,-71.2890625,-19.53125,0.0
1694738994.501837,5.37109375,-67.87109375,-63.4765625,10.25390625,0.0
1694738994.505739,14.6484375,-48.828125,-69.3359375,21.97265625,0.0
1694738994.5096407,-18.06640625,-28.80859375,-76.66015625,-17.08984375,0.0
1694738994.5135427,-31.25,-27.34375,-77.1484375,-38.0859375,0.0
1694738994.5174444,-25.87890625,-32.71484375,-80.078125,-33.69140625,0.0
1694738994.5213463,-38.57421875,-26.85546875,-77.1484375,-54.19921875,0.0
1694738994.525248,-41.50390625,-12.6953125,-80.56640625,-66.40625,0.0
1694738994.5292087,-30.76171875,-10.25390625,-90.8203125,-62.5,0.0
1694738994.5331104,-45.8984375,-23.4375,-98.14453125,-72.265625,0.0
1694738994.5370123,-49.31640625,-18.06640625,-94.7265625,-74.21875,0.0
1694738994.540914,-52.24609375,-12.20703125,-96.19140625,-74.21875,0.0
1694738994.544816,-56.15234375,-16.6015625,-97.65625,-81.0546875,0.0
1694738994.548718,-35.64453125,-22.94921875,-97.16796875,-59.5703125,0.0
1694738994.5526197,-28.3203125,-34.1796875,-95.703125,-43.45703125,0.0
1694738994.5565217,-30.2734375,-28.80859375,-89.35546875,-37.59765625,0.0
1694738994.5604234,-29.296875,-30.76171875,-93.26171875,-32.71484375,0.0
1694738994.5643253,-20.01953125,-40.0390625,-91.796875,-40.0390625,0.0
1694738994.5682273,-13.18359375,-31.25,-84.9609375,-39.0625,0.0
1694738994.572129,-7.32421875,-30.76171875,-79.58984375,-35.64453125,0.0
1694738994.5760837,-15.13671875,-41.50390625,-82.03125,-39.0625,0.0
1694738994.5799854,-13.18359375,-43.45703125,-83.49609375,-26.85546875,0.0
1694738994.5838873,-6.8359375,-38.0859375,-75.68359375,-11.71875,0.0
1694738994.587789,-17.08984375,-40.52734375,-75.68359375,-13.18359375,0.0
1694738994.591691,-13.18359375,-47.8515625,-74.21875,-10.25390625,0.0
1694738994.595593,-10.7421875,-44.43359375,-72.265625,-7.8125,0.0
1694738994.5994947,-11.71875,-44.43359375,-68.84765625,-14.16015625,0.0
1694738994.6033967,0.48828125,-41.9921875,-68.84765625,-16.11328125,0.0
1694738994.6072984,-17.578125,-46.875,-77.1484375,-17.08984375,0.0
1694738994.6112003,-22.4609375,-45.41015625,-74.70703125,-9.765625,0.0
1694738994.6151023,-17.578125,-37.59765625,-67.87109375,-2.9296875,0.0
1694738994.619004,-12.6953125,-37.109375,-73.73046875,-11.23046875,0.0
1694738994.622953,-1.46484375,-43.45703125,-77.1484375,-3.90625,0.0
1694738994.6268547,-7.32421875,-29.78515625,-73.73046875,1.46484375,0.0
1694738994.6307566,-11.23046875,-23.4375,-64.453125,-4.39453125,0.0
1694738994.6346583,-10.7421875,-34.66796875,-58.10546875,-3.41796875,0.0
1694738994.6385603,-4.8828125,-33.69140625,-63.4765625,-5.859375,0.0
1694738994.6424623,3.41796875,-23.4375,-58.10546875,5.37109375,0.0
1694738994.646364,2.44140625,-17.578125,-53.7109375,11.23046875,0.0
1694738994.650266,8.7890625,-20.5078125,-51.26953125,8.30078125,0.0
1694738994.6541677,14.6484375,-21.97265625,-46.875,-1.953125,0.0
1694738994.6580696,5.859375,-14.6484375,-55.17578125,-8.30078125,0.0
1694738994.6619716,-1.46484375,-24.90234375,-54.19921875,7.8125,0.0
1694738994.6658733,4.8828125,-30.76171875,-48.828125,-4.8828125,0.0
1694738994.669824,6.8359375,-30.2734375,-49.8046875,-15.13671875,0.0
1694738994.6737256,-4.8828125,-31.25,-46.38671875,-16.6015625,0.0
1694738994.6776276,4.8828125,-28.3203125,-46.875,-14.16015625,0.0
1694738994.6815293,8.7890625,-41.50390625,-49.8046875,-6.8359375,0.0
1694738994.6854312,-2.9296875,-37.109375,-40.0390625,-9.765625,0.0
1694738994.6893332,-14.16015625,-25.87890625,-36.62109375,-4.39453125,0.0
1694738994.693235,-8.30078125,-30.2734375,-42.48046875,3.90625,0.0
1694738994.6971369,8.7890625,-38.57421875,-40.52734375,1.953125,0.0
1694738994.7010388,4.39453125,-33.69140625,-37.59765625,-0.9765625,0.0
1694738994.7049406,-12.6953125,-27.83203125,-47.36328125,3.41796875,0.0
1694738994.7088425,-5.37109375,-38.0859375,-50.29296875,14.6484375,0.0
1694738994.7127442,-6.34765625,-39.0625,-47.36328125,3.41796875,0.0
1694738994.716688,-13.671875,-39.0625,-48.33984375,-4.8828125,0.0
1694738994.7205899,-8.7890625,-41.9921875,-51.7578125,-3.90625,0.0
1694738994.7244916,-9.27734375,-42.48046875,-55.6640625,-11.71875,0.0
1694738994.7283936,-14.6484375,-37.109375,-59.08203125,-10.7421875,0.0
1694738994.7322953,-8.30078125,-41.50390625,-55.17578125,-3.41796875,0.0
1694738994.7361972,-1.46484375,-47.8515625,-45.41015625,-3.41796875,0.0
1694738994.7400992,-2.9296875,-47.8515625,-50.78125,-11.71875,0.0
1694738994.744001,-11.71875,-52.24609375,-54.19921875,-2.44140625,0.0
1694738994.7479029,-0.48828125,-41.015625,-49.31640625,-4.8828125,0.0
1694738994.7518048,-0.9765625,-42.48046875,-54.19921875,-9.27734375,0.0
1694738994.7557065,-15.625,-51.7578125,-51.26953125,-15.13671875,0.0
1694738994.7596085,-8.30078125,-42.96875,-48.33984375,-20.99609375,0.0
1694738994.7635458,-4.39453125,-35.15625,-47.8515625,-11.71875,0.0
1694738994.7674477,-0.9765625,-36.62109375,-47.8515625,-12.20703125,0.0
1694738994.7713494,-5.859375,-34.66796875,-45.8984375,-5.859375,0.0
1694738994.7752514,-12.6953125,-25.390625,-41.9921875,-17.08984375,0.0
1694738994.7791533,-16.11328125,-32.2265625,-47.36328125,-26.3671875,0.0
1694738994.783055,-10.25390625,-34.66796875,-51.26953125,-17.578125,0.0
1694738994.786957,-2.9296875,-37.109375,-48.33984375,-10.25390625,0.0
1694738994.7908587,0.0,-32.71484375,-41.50390625,4.8828125,0.0
1694738994.7947607,-2.44140625,-25.87890625,-40.52734375,2.44140625,0.0
1694738994.7986627,13.671875,-28.80859375,-47.8515625,0.48828125,0.0
1694738994.8025644,18.06640625,-34.1796875,-44.43359375,12.6953125,0.0
1694738994.8064663,-23.4375,-43.9453125,-40.0390625,-16.11328125,0.0
1694738994.8103971,-28.80859375,-48.33984375,-39.0625,-25.87890625,0.0
1694738994.814299,-8.7890625,-47.8515625,-33.69140625,-5.37109375,0.0
1694738994.818201,-21.97265625,-47.8515625,-36.1328125,-10.7421875,0.0
1694738994.8221028,-20.5078125,-43.9453125,-32.71484375,-18.06640625,0.0
1694738994.8260047,-10.25390625,-44.43359375,-32.2265625,-20.01953125,0.0
1694738994.8299065,-16.6015625,-44.921875,-43.9453125,-20.99609375,0.0
1694738994.8338084,-25.390625,-39.0625,-53.22265625,-24.4140625,0.0
1694738994.8377104,-13.18359375,-43.9453125,-50.29296875,-28.80859375,0.0
1694738994.841612,-7.32421875,-51.7578125,-49.31640625,-28.3203125,0.0
1694738994.845514,-17.578125,-59.08203125,-52.734375,-23.4375,0.0
1694738994.849416,-21.97265625,-64.453125,-53.7109375,-17.578125,0.0
1694738994.8533177,-16.6015625,-51.26953125,-49.8046875,-9.27734375,0.0
1694738994.8572776,-4.39453125,-47.36328125,-47.36328125,-14.16015625,0.0
1694738994.8611794,-4.8828125,-53.7109375,-45.8984375,-20.01953125,0.0
1694738994.8650813,-12.20703125,-48.33984375,-43.45703125,-21.484375,0.0
1694738994.8689833,-15.13671875,-39.0625,-40.0390625,-16.6015625,0.0
1694738994.872885,-7.32421875,-42.48046875,-37.59765625,-9.27734375,0.0
1694738994.876787,-5.859375,-56.15234375,-43.9453125,-13.671875,0.0
1694738994.880689,-3.41796875,-50.29296875,-45.41015625,-8.7890625,0.0
1694738994.8845906,-11.23046875,-44.43359375,-40.52734375,-10.25390625,0.0
1694738994.8884926,-8.30078125,-49.31640625,-41.50390625,-25.87890625,0.0
1694738994.8923945,-9.765625,-59.5703125,-41.9921875,-17.08984375,0.0
1694738994.8962963,-15.13671875,-57.6171875,-40.0390625,-11.71875,0.0
1694738994.9001982,-24.90234375,-54.19921875,-50.78125,-18.06640625,0.0
1694738994.9041607,-24.4140625,-54.6875,-56.640625,-9.765625,0.0
1694738994.9080625,-0.48828125,-58.10546875,-49.31640625,2.44140625,0.0
1694738994.9119644,1.46484375,-51.26953125,-39.55078125,0.9765625,0.0
1694738994.9158664,-8.30078125,-48.33984375,-41.015625,-3.41796875,0.0
1694738994.919768,-7.8125,-45.41015625,-44.43359375,-3.41796875,0.0
1694738994.92367,-11.71875,-51.26953125,-44.43359375,-5.859375,0.0
1694738994.927572,-9.27734375,-56.15234375,-44.921875,-16.11328125,0.0
1694738994.931474,-6.8359375,-51.7578125,-44.43359375,-18.5546875,0.0
1694738994.9353757,-4.39453125,-53.7109375,-48.33984375,-17.08984375,0.0
1694738994.9392776,-0.48828125,-60.05859375,-48.828125,-3.41796875,0.0
1694738994.9431796,-7.32421875,-54.19921875,-49.31640625,-4.39453125,0.0
1694738994.9470813,-10.25390625,-48.828125,-48.33984375,-10.7421875,0.0
1694738994.951038,-0.48828125,-57.6171875,-45.41015625,-8.30078125,0.0
1694738994.9549398,-4.39453125,-62.01171875,-54.19921875,-17.578125,0.0
1694738994.9588418,-12.6953125,-50.29296875,-54.6875,-30.76171875,0.0
1694738994.9627435,-18.5546875,-50.78125,-41.9921875,-30.76171875,0.0
1694738994.9666455,-18.06640625,-54.6875,-41.50390625,-15.625,0.0
1694738994.9705474,-12.20703125,-49.31640625,-47.8515625,-10.25390625,0.0
1694738994.9744492,-12.20703125,-37.109375,-45.8984375,-16.11328125,0.0
1694738994.978351,-31.25,-30.76171875,-44.921875,-17.578125,0.0
1694738994.982253,-33.203125,-45.8984375,-41.9921875,-10.25390625,0.0
1694738994.986155,-19.04296875,-43.45703125,-43.45703125,-13.18359375,0.0
1694738994.9900568,-13.671875,-35.15625,-48.828125,-23.92578125,0.0
1694738994.9939587,-16.6015625,-39.0625,-52.734375,-35.64453125,0.0
1694738994.9979088,-18.5546875,-41.9921875,-49.8046875,-32.71484375,0.0
1694738995.0018106,-4.39453125,-35.64453125,-53.22265625,-25.87890625,0.0
1694738995.0057125,0.0,-30.2734375,-56.15234375,-12.6953125,0.0
1694738995.0096145,-18.06640625,-33.203125,-43.45703125,-14.16015625,0.0
1694738995.0135164,-34.1796875,-43.45703125,-38.0859375,-39.0625,0.0
1694738995.0174181,-41.015625,-42.48046875,-46.875,-42.96875,0.0
1694738995.02132,-27.83203125,-37.59765625,-49.31640625,-44.921875,0.0
1694738995.025222,-23.4375,-48.828125,-43.9453125,-50.78125,0.0
1694738995.0291238,-24.90234375,-57.6171875,-36.1328125,-39.0625,0.0
1694738995.0330257,-18.5546875,-45.8984375,-38.0859375,-27.34375,0.0
1694738995.0369277,-30.76171875,-41.9921875,-43.45703125,-31.73828125,0.0
1694738995.0408297,-38.57421875,-49.8046875,-44.43359375,-30.2734375,0.0
1694738995.044773,-32.2265625,-50.78125,-46.38671875,-38.57421875,0.0
1694738995.048675,-24.4140625,-49.8046875,-46.38671875,-51.26953125,0.0
1694738995.052577,-1.46484375,-54.6875,-40.0390625,-38.57421875,0.0
1694738995.0564787,-6.34765625,-64.94140625,-40.52734375,-19.04296875,0.0
1694738995.0603807,-18.5546875,-62.01171875,-41.015625,-14.16015625,0.0
1694738995.0642827,-20.01953125,-62.5,-41.015625,-10.7421875,0.0
1694738995.0681844,-15.625,-65.4296875,-42.96875,-12.6953125,0.0
1694738995.0720863,-11.23046875,-58.59375,-44.921875,-10.7421875,0.0
1694738995.0759883,-10.25390625,-57.6171875,-41.9921875,-8.30078125,0.0
1694738995.0798903,-1.46484375,-50.29296875,-27.83203125,-7.32421875,0.0
1694738995.083792,3.41796875,-51.7578125,-25.390625,-4.8828125,0.0
1694738995.087694,-6.8359375,-54.19921875,-23.92578125,-4.8828125,0.0
1694738995.0916402,2.44140625,-47.36328125,-24.90234375,-11.23046875,0.0
1694738995.0955422,6.8359375,-54.19921875,-28.80859375,-15.13671875,0.0
1694738995.099444,-5.859375,-62.01171875,-27.83203125,-13.671875,0.0
1694738995.1033459,-16.11328125,-61.5234375,-30.2734375,-3.41796875,0.0
1694738995.1072478,-18.5546875,-62.98828125,-33.203125,-1.46484375,0.0
1694738995.1111498,-7.8125,-63.96484375,-35.15625,-4.39453125,0.0
1694738995.1150515,-2.9296875,-62.01171875,-31.73828125,10.25390625,0.0
1694738995.1189535,-2.9296875,-53.22265625,-29.296875,7.32421875,0.0
1694738995.1228554,-2.44140625,-36.62109375,-31.25,-5.859375,0.0
1694738995.1267574,0.0,-41.50390625,-31.73828125,-6.34765625,0.0
1694738995.130659,5.859375,-53.7109375,-33.69140625,-4.8828125,0.0
1694738995.134561,0.48828125,-58.10546875,-32.71484375,-2.9296875,0.0
1694738995.138536,0.0,-44.921875,-26.3671875,-2.9296875,0.0
1694738995.1424377,-6.8359375,-42.96875,-26.3671875,-5.37109375,0.0
1694738995.1463397,-3.41796875,-50.78125,-38.57421875,-13.671875,0.0
1694738995.1502416,4.8828125,-45.41015625,-49.8046875,-10.25390625,0.0
1694738995.1541436,-4.39453125,-44.43359375,-53.7109375,-6.8359375,0.0
1694738995.1580453,-16.11328125,-58.10546875,-57.12890625,-15.13671875,0.0
1694738995.1619473,-27.83203125,-68.84765625,-53.22265625,-13.18359375,0.0
1694738995.1658492,-27.34375,-61.5234375,-47.8515625,-0.9765625,0.0
1694738995.1697512,-14.6484375,-48.828125,-41.015625,-10.7421875,0.0
1694738995.173653,-16.6015625,-54.19921875,-39.0625,-17.578125,0.0
1694738995.1775548,-12.20703125,-56.640625,-46.875,-18.06640625,0.0
1694738995.1814568,-9.27734375,-46.38671875,-50.29296875,-16.11328125,0.0
1694738995.1853902,-14.16015625,-55.17578125,-41.9921875,-0.48828125,0.0
1694738995.1892922,-17.08984375,-61.5234375,-40.52734375,-14.16015625,0.0
1694738995.1931942,-13.18359375,-55.17578125,-48.828125,-30.76171875,0.0
1694738995.197096,-4.8828125,-51.7578125,-40.52734375,-12.6953125,0.0
1694738995.2009978,-6.34765625,-56.15234375,-31.25,-14.16015625,0.0
1694738995.2048998,-15.13671875,-63.4765625,-34.1796875,-17.578125,0.0
1694738995.2088017,-15.625,-63.96484375,-36.62109375,-12.6953125,0.0
1694738995.2127037,-20.5078125,-50.78125,-39.0625,-8.7890625,0.0
1694738995.2166057,-7.8125,-46.875,-42.96875,0.0,0.0
1694738995.2205074,-2.9296875,-61.03515625,-43.45703125,-3.90625,0.0
1694738995.2244093,-24.4140625,-64.453125,-44.43359375,0.0,0.0
1694738995.2283113,-21.97265625,-48.828125,-41.015625,-3.90625,0.0
1694738995.2322736,-14.6484375,-41.9921875,-41.015625,-17.578125,0.0
1694738995.2361753,-25.87890625,-45.41015625,-46.875,-16.11328125,0.0
1694738995.2400773,-19.53125,-46.875,-46.875,-7.32421875,0.0
1694738995.2439792,-17.08984375,-44.43359375,-42.96875,-14.6484375,0.0
1694738995.2478812,-13.18359375,-45.41015625,-40.52734375,-27.34375,0.0
1694738995.251783,-19.53125,-49.8046875,-46.38671875,-28.80859375,0.0
1694738995.2556849,-24.4140625,-43.45703125,-42.48046875,-17.08984375,0.0
1694738995.2595868,-15.13671875,-30.76171875,-36.62109375,-16.6015625,0.0
1694738995.2634888,-5.859375,-28.3203125,-37.109375,-7.8125,0.0
1694738995.2673907,0.0,-39.0625,-36.62109375,0.0,0.0
1694738995.2712924,-8.7890625,-37.59765625,-33.69140625,-14.16015625,0.0
1694738995.2751944,-27.83203125,-25.87890625,-29.296875,-32.71484375,0.0
1694738995.2791495,-18.06640625,-23.4375,-34.66796875,-24.4140625,0.0
1694738995.2830515,-12.6953125,-27.83203125,-37.59765625,-11.71875,0.0
1694738995.2869534,-20.99609375,-29.296875,-39.0625,-12.6953125,0.0
1694738995.2908552,-20.5078125,-39.0625,-45.8984375,-9.765625,0.0
1694738995.2947571,-27.34375,-47.8515625,-40.52734375,-17.578125,0.0
1694738995.298659,-20.01953125,-48.33984375,-35.64453125,-24.4140625,0.0
1694738995.302561,-9.765625,-48.33984375,-41.015625,-14.6484375,0.0
1694738995.306463,-5.859375,-41.9921875,-41.9921875,-11.23046875,0.0
1694738995.3103647,-19.53125,-44.43359375,-44.43359375,-25.390625,0.0
1694738995.3142667,-20.5078125,-52.734375,-42.96875,-6.34765625,0.0
1694738995.3181686,-16.11328125,-42.48046875,-38.0859375,-2.9296875,0.0
1694738995.3220706,-10.7421875,-44.43359375,-40.52734375,-11.71875,0.0
1694738995.3260288,-5.859375,-56.640625,-46.875,-18.5546875,0.0
1694738995.3299308,-15.13671875,-57.12890625,-47.8515625,-34.1796875,0.0
1694738995.3338327,-16.6015625,-60.546875,-42.96875,-22.4609375,0.0
1694738995.3377347,-17.08984375,-60.05859375,-43.9453125,-14.6484375,0.0
1694738995.3416364,-15.625,-53.7109375,-47.8515625,-22.94921875,0.0
1694738995.3455384,-21.97265625,-55.17578125,-45.8984375,-20.5078125,0.0
1694738995.3494403,-26.3671875,-46.38671875,-41.9921875,-18.5546875,0.0
1694738995.3533423,-27.83203125,-48.33984375,-45.41015625,-25.87890625,0.0
1694738995.3572443,-34.1796875,-54.19921875,-47.36328125,-27.34375,0.0
1694738995.361146,-24.90234375,-48.828125,-47.8515625,-26.3671875,0.0
1694738995.365048,-17.578125,-43.45703125,-48.33984375,-27.34375,0.0
1694738995.36895,-19.53125,-43.45703125,-45.41015625,-24.90234375,0.0
1694738995.3729014,-16.6015625,-57.12890625,-44.43359375,-12.6953125,0.0
1694738995.3768034,-11.71875,-53.7109375,-43.45703125,-19.04296875,0.0
1694738995.380705,-3.41796875,-40.52734375,-42.96875,-26.85546875,0.0
1694738995.384607,-6.8359375,-45.41015625,-46.38671875,-20.5078125,0.0
1694738995.388509,-20.01953125,-53.22265625,-50.29296875,-21.484375,0.0
1694738995.392411,-25.390625,-53.22265625,-48.828125,-24.90234375,0.0
1694738995.396313,-24.90234375,-47.8515625,-42.96875,-14.6484375,0.0
1694738995.400215,-13.671875,-48.33984375,-39.55078125,-4.39453125,0.0
1694738995.4041166,-11.71875,-56.15234375,-43.9453125,-8.30078125,0.0
1694738995.4080186,-19.04296875,-40.0390625,-41.015625,-20.99609375,0.0
1694738995.4119205,-11.71875,-33.203125,-38.57421875,-26.85546875,0.0
1694738995.4158225,-6.34765625,-35.64453125,-41.9921875,-27.83203125,0.0
1694738995.419768,-6.34765625,-36.1328125,-34.1796875,-14.16015625,0.0
1694738995.42367,-1.46484375,-45.8984375,-25.87890625,-0.48828125,0.0
1694738995.427572,10.7421875,-41.50390625,-26.85546875,3.41796875,0.0
1694738995.431474,4.39453125,-42.96875,-39.55078125,-13.18359375,0.0
1694738995.435376,-15.13671875,-47.36328125,-37.109375,-25.87890625,0.0
1694738995.4392776,-29.296875,-44.43359375,-38.57421875,-30.76171875,0.0
1694738995.4431796,-27.83203125,-41.9921875,-40.52734375,-29.296875,0.0
1694738995.4470816,-22.94921875,-47.36328125,-36.62109375,-27.83203125,0.0
1694738995.4509835,-21.484375,-49.31640625,-42.48046875,-30.76171875,0.0
1694738995.4548855,-10.7421875,-40.52734375,-41.50390625,-26.3671875,0.0
1694738995.4587872,-2.9296875,-37.59765625,-43.45703125,-23.4375,0.0
1694738995.4626892,-12.20703125,-42.96875,-53.22265625,-24.90234375,0.0
1694738995.4666286,-7.32421875,-39.0625,-49.8046875,-22.4609375,0.0
1694738995.4705305,-15.625,-40.0390625,-41.50390625,-27.83203125,0.0
1694738995.4744325,-28.3203125,-52.24609375,-39.55078125,-31.73828125,0.0
1694738995.4783344,-15.13671875,-52.24609375,-39.0625,-19.53125,0.0
1694738995.4822364,-19.04296875,-45.8984375,-41.50390625,-15.13671875,0.0
1694738995.486138,-20.5078125,-46.38671875,-50.29296875,-18.06640625,0.0
1694738995.49004,-13.671875,-42.96875,-61.5234375,-27.83203125,0.0
1694738995.493942,-10.25390625,-44.921875,-61.03515625,-25.87890625,0.0
1694738995.497844,0.9765625,-35.64453125,-49.31640625,-22.94921875,0.0
1694738995.501746,-7.32421875,-42.96875,-46.875,-26.3671875,0.0
1694738995.505648,-9.27734375,-48.33984375,-51.7578125,-20.5078125,0.0
1694738995.5095496,-7.32421875,-52.24609375,-54.19921875,-19.53125,0.0
1694738995.5134916,-8.30078125,-62.98828125,-53.22265625,-21.484375,0.0
1694738995.5173934,-3.90625,-58.10546875,-53.22265625,-24.90234375,0.0
1694738995.5212953,-2.44140625,-53.22265625,-53.7109375,-17.08984375,0.0
1694738995.5251973,-1.46484375,-59.5703125,-52.24609375,-14.16015625,0.0
1694738995.5290992,-15.13671875,-60.546875,-56.15234375,-10.25390625,0.0
1694738995.5330012,-23.92578125,-63.4765625,-53.7109375,-1.46484375,0.0
1694738995.5369031,-28.80859375,-64.94140625,-49.8046875,3.41796875,0.0
1694738995.5408049,-25.390625,-60.546875,-52.734375,-5.37109375,0.0
1694738995.5447068,-38.57421875,-65.91796875,-50.29296875,-20.99609375,0.0
1694738995.5486088,-34.66796875,-71.2890625,-48.33984375,-18.5546875,0.0
1694738995.5525107,-16.11328125,-63.4765625,-48.33984375,-18.5546875,0.0
1694738995.5564127,-18.06640625,-51.7578125,-45.41015625,-15.13671875,0.0
1694738995.5603483,-23.4375,-51.7578125,-43.9453125,-13.671875,0.0
1694738995.5642502,-24.90234375,-64.453125,-38.57421875,-14.16015625,0.0
1694738995.568152,-13.671875,-65.4296875,-39.55078125,-26.3671875,0.0
1694738995.572054,-2.44140625,-62.01171875,-46.875,-28.3203125,0.0
1694738995.5759559,-3.90625,-61.5234375,-54.6875,-32.71484375,0.0
1694738995.5798578,-9.27734375,-63.96484375,-49.31640625,-36.1328125,0.0
1694738995.5837598,0.9765625,-62.98828125,-46.875,-24.90234375,0.0
1694738995.5876617,-5.859375,-58.59375,-48.33984375,-36.1328125,0.0
1694738995.5915637,-21.97265625,-61.03515625,-42.96875,-47.8515625,0.0
1694738995.5954654,-14.6484375,-61.03515625,-44.43359375,-40.0390625,0.0
1694738995.5993674,-20.99609375,-60.546875,-46.875,-45.8984375,0.0
1694738995.6032693,-27.34375,-56.640625,-48.828125,-41.9921875,0.0
1694738995.6072423,-15.625,-48.33984375,-52.734375,-41.015625,0.0
1694738995.611144,-16.11328125,-53.22265625,-51.7578125,-42.48046875,0.0
1694738995.615046,-17.08984375,-53.7109375,-53.22265625,-38.0859375,0.0
1694738995.618948,-20.01953125,-50.78125,-59.08203125,-62.01171875,0.0
1694738995.62285,-22.4609375,-59.5703125,-59.5703125,-63.96484375,0.0
1694738995.626752,-21.484375,-71.2890625,-54.6875,-49.31640625,0.0
1694738995.6306539,-18.06640625,-71.2890625,-54.19921875,-47.8515625,0.0
1694738995.6345558,-13.18359375,-64.94140625,-51.7578125,-50.78125,0.0
1694738995.6384578,-27.34375,-58.10546875,-55.17578125,-56.640625,0.0
1694738995.6423595,-28.3203125,-69.82421875,-59.5703125,-43.45703125,0.0
1694738995.6462615,-24.4140625,-61.03515625,-55.17578125,-27.34375,0.0
1694738995.6501634,-36.62109375,-55.6640625,-54.19921875,-22.4609375,0.0
1694738995.6541214,-30.2734375,-62.98828125,-54.6875,-29.78515625,0.0
1694738995.6580234,-20.99609375,-61.03515625,-50.78125,-37.109375,0.0
1694738995.6619253,-25.390625,-61.03515625,-47.36328125,-30.76171875,0.0
1694738995.6658273,-23.92578125,-58.59375,-45.41015625,-24.4140625,0.0
1694738995.6697292,-22.94921875,-57.12890625,-56.15234375,-34.66796875,0.0
1694738995.6736312,-29.296875,-65.4296875,-58.59375,-47.36328125,0.0
1694738995.6775331,-36.62109375,-71.2890625,-58.59375,-38.57421875,0.0
1694738995.681435,-32.71484375,-60.546875,-62.01171875,-31.25,0.0
1694738995.685337,-21.484375,-54.19921875,-62.98828125,-28.3203125,0.0
1694738995.6892388,-24.4140625,-59.08203125,-59.08203125,-30.76171875,0.0
1694738995.6931407,-26.85546875,-60.05859375,-52.24609375,-31.25,0.0
1694738995.6970427,-18.06640625,-59.5703125,-55.17578125,-28.3203125,0.0
1694738995.7009945,-0.9765625,-52.734375,-54.6875,-14.16015625,0.0
1694738995.7048962,-5.859375,-49.31640625,-52.734375,-21.484375,0.0
1694738995.7087982,-26.3671875,-50.29296875,-50.29296875,-37.59765625,0.0
1694738995.7127001,-13.18359375,-47.36328125,-47.8515625,-34.66796875,0.0
1694738995.716602,-7.32421875,-52.24609375,-56.15234375,-27.34375,0.0
1694738995.720504,-20.01953125,-53.7109375,-57.6171875,-9.27734375,0.0
1694738995.724406,-26.3671875,-55.17578125,-53.7109375,-8.7890625,0.0
1694738995.728308,-19.04296875,-55.6640625,-51.7578125,-20.5078125,0.0
1694738995.73221,-9.27734375,-59.08203125,-46.38671875,-13.18359375,0.0
1694738995.7361119,-11.23046875,-42.96875,-49.31640625,-16.6015625,0.0
1694738995.7400138,-7.32421875,-37.59765625,-49.8046875,-26.3671875,0.0
1694738995.7439156,0.48828125,-47.8515625,-47.36328125,-20.5078125,0.0
1694738995.7478697,0.48828125,-47.8515625,-44.43359375,-25.87890625,0.0
1694738995.7517717,-1.953125,-43.45703125,-48.33984375,-23.92578125,0.0
1694738995.7556736,1.46484375,-35.64453125,-52.24609375,-7.32421875,0.0
1694738995.7595756,-12.20703125,-35.15625,-48.33984375,-12.20703125,0.0
1694738995.7634776,-7.32421875,-38.57421875,-46.875,-11.23046875,0.0
1694738995.7673795,-3.90625,-42.48046875,-45.41015625,-7.8125,0.0
1694738995.7712815,-16.6015625,-41.9921875,-44.43359375,-7.32421875,0.0
1694738995.7751832,-20.99609375,-48.33984375,-46.875,-11.71875,0.0
1694738995.7790852,-13.671875,-53.22265625,-44.921875,-10.25390625,0.0
1694738995.782987,-3.41796875,-35.15625,-43.9453125,-10.25390625,0.0
1694738995.786889,-6.8359375,-32.2265625,-41.50390625,-10.7421875,0.0
1694738995.790791,-0.48828125,-41.9921875,-39.55078125,-10.25390625,0.0
1694738995.7947385,-8.30078125,-40.0390625,-35.64453125,-8.7890625,0.0
1694738995.7986405,-10.7421875,-41.9921875,-29.78515625,13.671875,0.0
1694738995.8025424,-5.37109375,-45.41015625,-29.78515625,24.4140625,0.0
1694738995.8064444,-19.04296875,-37.59765625,-37.59765625,-6.34765625,0.0
1694738995.8103464,-20.01953125,-26.3671875,-36.1328125,-24.4140625,0.0
1694738995.8142483,-11.71875,-22.94921875,-40.0390625,-11.71875,0.0
1694738995.8181503,-9.27734375,-27.34375,-50.29296875,-9.765625,0.0
1694738995.8220522,1.46484375,-28.80859375,-52.24609375,-1.46484375,0.0
1694738995.8259542,-0.48828125,-21.484375,-51.7578125,-2.44140625,0.0
1694738995.8298562,-4.39453125,-23.92578125,-56.15234375,-12.20703125,0.0
1694738995.833758,-6.8359375,-32.71484375,-59.5703125,-8.30078125,0.0
1694738995.83766,-19.04296875,-40.0390625,-60.05859375,-5.37109375,0.0
1694738995.8416016,-6.8359375,-41.50390625,-55.6640625,-4.39453125,0.0
1694738995.8455036,-5.37109375,-31.25,-56.640625,-9.27734375,0.0
1694738995.8494055,-10.25390625,-27.83203125,-57.12890625,-10.7421875,0.0
1694738995.8533075,-2.44140625,-39.55078125,-52.24609375,6.34765625,0.0
1694738995.8572094,0.0,-40.52734375,-54.19921875,2.44140625,0.0
1694738995.8611114,-1.953125,-38.57421875,-54.19921875,0.0,0.0
1694738995.8650134,-6.34765625,-50.29296875,-47.8515625,3.41796875,0.0
1694738995.8689153,-10.7421875,-42.48046875,-43.45703125,8.7890625,0.0
1694738995.872817,-19.04296875,-32.2265625,-45.41015625,14.6484375,0.0
1694738995.876719,-20.5078125,-38.0859375,-47.36328125,10.25390625,0.0
1694738995.880621,-7.32421875,-35.15625,-50.29296875,15.13671875,0.0
1694738995.884523,-4.8828125,-37.59765625,-51.26953125,20.01953125,0.0
1694738995.8884923,-10.7421875,-30.76171875,-52.734375,0.9765625,0.0
1694738995.8923943,-9.765625,-25.87890625,-58.10546875,-17.08984375,0.0
1694738995.8962963,-4.8828125,-40.52734375,-59.5703125,-7.8125,0.0
1694738995.9001982,-11.71875,-38.0859375,-54.19921875,-1.953125,0.0
1694738995.9041002,-22.94921875,-39.55078125,-43.45703125,0.48828125,0.0
1694738995.9080021,-19.04296875,-46.875,-44.921875,1.46484375,0.0
1694738995.911904,-4.39453125,-47.8515625,-52.24609375,6.34765625,0.0
1694738995.915806,-4.8828125,-39.55078125,-46.38671875,15.13671875,0.0
1694738995.919708,-10.7421875,-20.5078125,-36.62109375,12.20703125,0.0
1694738995.9236097,-12.20703125,-26.85546875,-31.73828125,5.37109375,0.0
1694738995.9275117,-20.5078125,-41.50390625,-39.0625,-4.39453125,0.0
1694738995.9314137,-18.5546875,-37.109375,-49.31640625,-9.27734375,0.0
1694738995.9353514,-14.6484375,-27.34375,-46.875,-7.32421875,0.0
1694738995.9392533,-20.01953125,-25.87890625,-43.45703125,-8.7890625,0.0
1694738995.9431553,-14.16015625,-32.71484375,-46.875,-8.30078125,0.0
1694738995.9470572,-20.01953125,-35.15625,-52.734375,-11.23046875,0.0
1694738995.9509592,-22.4609375,-33.69140625,-59.08203125,-13.671875,0.0
1694738995.9548612,-13.18359375,-31.25,-52.734375,-11.71875,0.0
1694738995.9587631,-13.18359375,-30.2734375,-46.38671875,-4.39453125,0.0
1694738995.962665,-24.90234375,-27.83203125,-45.41015625,-6.34765625,0.0
1694738995.966567,-23.92578125,-28.3203125,-45.8984375,-10.7421875,0.0
1694738995.970469,-20.99609375,-35.64453125,-52.24609375,-7.32421875,0.0
1694738995.974371,-33.203125,-45.41015625,-49.8046875,-1.46484375,0.0
1694738995.9782727,-34.1796875,-29.296875,-43.45703125,-13.18359375,0.0
1694738995.982239,-20.01953125,-21.97265625,-49.8046875,-10.7421875,0.0
1694738995.986141,-22.4609375,-27.34375,-54.19921875,-5.37109375,0.0
1694738995.990043,-23.4375,-24.4140625,-54.19921875,-3.41796875,0.0
1694738995.993945,-9.765625,-19.04296875,-55.17578125,-9.765625,0.0
1694738995.9978468,-5.859375,-16.11328125,-58.10546875,-6.8359375,0.0
1694738996.0017488,-8.7890625,-27.83203125,-61.03515625,3.41796875,0.0
1694738996.0056508,-9.27734375,-38.57421875,-58.10546875,0.0,0.0
1694738996.0095527,-16.11328125,-36.1328125,-55.17578125,-7.8125,0.0
1694738996.0134547,-13.18359375,-34.1796875,-52.24609375,-6.8359375,0.0
1694738996.0173566,-2.44140625,-41.9921875,-55.6640625,8.30078125,0.0
1694738996.0212586,-16.6015625,-38.57421875,-58.10546875,-5.37109375,0.0
1694738996.0251606,-14.16015625,-34.1796875,-55.17578125,-19.53125,0.0
1694738996.0291202,-4.8828125,-42.96875,-58.10546875,-2.9296875,0.0
1694738996.0330222,-11.71875,-50.29296875,-61.5234375,-2.44140625,0.0
1694738996.0369241,-18.06640625,-47.8515625,-57.6171875,-15.13671875,0.0
1694738996.040826,-23.92578125,-45.41015625,-51.7578125,-14.16015625,0.0
1694738996.044728,-19.53125,-50.78125,-54.19921875,-11.23046875,0.0
1694738996.04863,-19.04296875,-56.15234375,-59.08203125,-7.8125,0.0
1694738996.052532,-23.92578125,-53.22265625,-57.12890625,-15.13671875,0.0
1694738996.056434,-18.06640625,-54.6875,-57.12890625,-14.6484375,0.0
1694738996.0603359,-20.5078125,-53.7109375,-56.640625,-8.7890625,0.0
1694738996.0642378,-19.53125,-61.5234375,-63.4765625,0.48828125,0.0
1694738996.0681398,-21.97265625,-54.19921875,-60.546875,-1.953125,0.0
1694738996.0720417,-25.390625,-50.29296875,-61.03515625,-13.671875,0.0
1694738996.0759952,-37.109375,-69.82421875,-71.2890625,-32.71484375,0.0
1694738996.0798972,-35.15625,-73.2421875,-66.40625,-33.69140625,0.0
1694738996.0837991,-7.32421875,-62.01171875,-62.5,-21.97265625,0.0
1694738996.087701,19.53125,-59.08203125,-63.96484375,-3.90625,0.0
1694738996.091603,-0.48828125,-64.94140625,-61.03515625,0.48828125,0.0
1694738996.095505,-35.15625,-78.61328125,-61.03515625,-22.4609375,0.0
1694738996.099407,-51.26953125,-72.75390625,-61.03515625,-32.2265625,0.0
1694738996.103309,-52.24609375,-68.84765625,-60.546875,-44.43359375,0.0
1694738996.1072109,-50.29296875,-80.078125,-65.4296875,-57.12890625,0.0
1694738996.1111128,-55.17578125,-77.1484375,-65.91796875,-54.6875,0.0
1694738996.1150148,-50.29296875,-66.89453125,-62.01171875,-48.828125,0.0
1694738996.1189167,-54.19921875,-64.453125,-62.5,-52.734375,0.0
1694738996.122864,-64.94140625,-70.3125,-62.98828125,-62.01171875,0.0
1694738996.126766,-58.59375,-68.359375,-58.10546875,-60.546875,0.0
1694738996.130668,-49.31640625,-63.96484375,-62.5,-54.6875,0.0
1694738996.13457,-45.8984375,-62.5,-68.359375,-59.08203125,0.0
1694738996.1384718,-39.55078125,-54.6875,-61.03515625,-43.45703125,0.0
1694738996.1423738,-25.87890625,-62.98828125,-65.91796875,-33.203125,0.0
1694738996.1462758,-29.78515625,-62.5,-74.21875,-54.6875,0.0
1694738996.1501777,-38.57421875,-55.17578125,-69.3359375,-41.50390625,0.0
1694738996.1540797,-35.64453125,-63.4765625,-69.3359375,-22.94921875,0.0
1694738996.1579816,-33.203125,-55.6640625,-65.91796875,-25.87890625,0.0
1694738996.1618836,-27.34375,-55.6640625,-65.4296875,-20.99609375,0.0
1694738996.1657856,-25.87890625,-56.15234375,-68.84765625,-30.2734375,0.0
1694738996.1697352,-37.59765625,-51.26953125,-64.453125,-38.57421875,0.0
1694738996.1736372,-36.1328125,-53.7109375,-58.59375,-23.4375,0.0
1694738996.177539,-29.78515625,-55.6640625,-61.03515625,-27.83203125,0.0
1694738996.181441,-30.2734375,-51.26953125,-62.01171875,-36.62109375,0.0
1694738996.185343,-31.25,-47.36328125,-61.5234375,-34.66796875,0.0
1694738996.189245,-33.203125,-52.24609375,-67.87109375,-27.34375,0.0
1694738996.193147,-33.203125,-55.17578125,-62.98828125,-15.625,0.0
1694738996.197049,-28.80859375,-61.5234375,-62.5,-7.8125,0.0
1694738996.2009509,-22.94921875,-60.546875,-63.4765625,-16.11328125,0.0
1694738996.2048528,-21.97265625,-46.875,-53.22265625,-21.484375,0.0
1694738996.2087548,-17.578125,-48.33984375,-54.19921875,-13.671875,0.0
1694738996.2126567,-9.27734375,-55.6640625,-60.05859375,-17.08984375,0.0
1694738996.2166002,-19.53125,-47.8515625,-59.08203125,-15.625,0.0
1694738996.2205021,-27.34375,-39.55078125,-59.08203125,-1.953125,0.0
1694738996.224404,-20.99609375,-46.38671875,-60.546875,-8.7890625,0.0
1694738996.228306,-8.7890625,-49.8046875,-59.5703125,-14.6484375,0.0
1694738996.232208,-16.6015625,-46.875,-62.5,-20.99609375,0.0
1694738996.23611,-15.13671875,-55.17578125,-68.359375,-26.85546875,0.0
1694738996.240012,-10.25390625,-57.12890625,-73.2421875,-30.76171875,0.0
1694738996.243914,-12.6953125,-61.5234375,-71.77734375,-31.73828125,0.0
1694738996.2478158,-14.16015625,-50.78125,-65.4296875,-22.4609375,0.0
1694738996.2517178,-23.4375,-41.015625,-68.84765625,-27.83203125,0.0
1694738996.2556198,-33.203125,-54.19921875,-71.77734375,-26.85546875,0.0
1694738996.259522,-32.71484375,-58.59375,-72.265625,-30.2734375,0.0
1694738996.263459,-35.15625,-50.29296875,-76.171875,-36.1328125,0.0
1694738996.267361,-35.64453125,-46.38671875,-70.3125,-33.203125,0.0
1694738996.271263,-20.5078125,-52.734375,-62.98828125,-34.66796875,0.0
1694738996.2751648,-20.01953125,-51.26953125,-63.96484375,-36.1328125,0.0
1694738996.2790668,-20.99609375,-48.33984375,-67.3828125,-23.92578125,0.0
1694738996.2829688,-23.92578125,-49.8046875,-64.453125,-20.5078125,0.0
1694738996.286871,-20.01953125,-58.10546875,-61.5234375,-27.34375,0.0
1694738996.290773,-23.92578125,-62.01171875,-59.5703125,-25.87890625,0.0
1694738996.2946749,-21.97265625,-59.08203125,-54.6875,-13.671875,0.0
1694738996.2985768,-8.30078125,-53.7109375,-60.05859375,-5.37109375,0.0
1694738996.3024788,-28.80859375,-48.828125,-73.73046875,-27.34375,0.0
1694738996.3063807,-41.9921875,-46.875,-83.0078125,-57.6171875,0.0
1694738996.310346,-29.296875,-45.8984375,-84.47265625,-50.29296875,0.0
1694738996.3142478,-16.6015625,-49.31640625,-82.03125,-38.0859375,0.0
1694738996.3181498,-22.4609375,-52.734375,-76.171875,-30.2734375,0.0
1694738996.3220518,-34.66796875,-47.8515625,-68.359375,-26.3671875,0.0
1694738996.3259537,-30.2734375,-50.29296875,-63.96484375,-20.99609375,0.0
1694738996.3298557,-33.69140625,-64.94140625,-65.91796875,-16.11328125,0.0
1694738996.3337576,-29.296875,-72.265625,-66.89453125,-26.85546875,0.0
1694738996.3376598,-17.08984375,-58.59375,-68.359375,-26.85546875,0.0
1694738996.3415618,-12.20703125,-50.78125,-68.359375,-20.5078125,0.0
1694738996.3454638,-12.20703125,-63.96484375,-68.84765625,-22.94921875,0.0
1694738996.3493657,-20.01953125,-69.82421875,-72.265625,-18.5546875,0.0
1694738996.3532677,-27.83203125,-63.4765625,-71.77734375,-20.5078125,0.0
1694738996.3572264,-27.34375,-61.5234375,-71.2890625,-26.85546875,0.0
1694738996.3611283,-30.2734375,-63.4765625,-71.77734375,-35.15625,0.0
1694738996.3650303,-35.64453125,-62.5,-69.82421875,-38.0859375,0.0
1694738996.3689322,-32.71484375,-54.19921875,-65.4296875,-32.2265625,0.0
1694738996.3728342,-31.73828125,-62.5,-63.96484375,-31.25,0.0
1694738996.3767362,-27.34375,-75.1953125,-64.94140625,-29.296875,0.0
1694738996.3806384,-14.6484375,-67.3828125,-65.4296875,-19.53125,0.0
1694738996.3845403,-17.08984375,-61.03515625,-65.91796875,-20.99609375,0.0
1694738996.3884423,-14.6484375,-59.5703125,-61.03515625,-22.4609375,0.0
1694738996.3923442,-11.23046875,-57.12890625,-58.59375,-19.04296875,0.0
1694738996.3962462,-14.16015625,-53.7109375,-59.5703125,-18.06640625,0.0
1694738996.4001482,-23.4375,-54.6875,-60.05859375,-18.5546875,0.0
1694738996.40411,-30.2734375,-59.08203125,-61.5234375,-19.04296875,0.0
1694738996.408012,-13.671875,-51.7578125,-64.453125,-13.18359375,0.0
1694738996.4119139,-14.6484375,-40.52734375,-61.5234375,-20.5078125,0.0
1694738996.4158158,-17.578125,-35.64453125,-60.05859375,-30.2734375,0.0
1694738996.4197178,-16.6015625,-37.59765625,-59.08203125,-24.90234375,0.0
1694738996.4236197,-13.671875,-48.33984375,-53.22265625,-24.4140625,0.0
1694738996.4275217,-16.11328125,-45.8984375,-49.8046875,-22.4609375,0.0
1694738996.4314237,-28.80859375,-47.36328125,-49.31640625,-10.7421875,0.0
1694738996.4353256,-13.671875,-50.29296875,-55.17578125,-13.671875,0.0
1694738996.4392278,-5.859375,-51.26953125,-68.359375,-13.671875,0.0
1694738996.4431298,-9.765625,-35.64453125,-69.3359375,-14.16015625,0.0
1694738996.4470317,-11.23046875,-39.0625,-71.2890625,-16.11328125,0.0
1694738996.4509869,-27.83203125,-63.4765625,-73.2421875,-9.765625,0.0
1694738996.4548888,-24.90234375,-59.08203125,-70.3125,-15.625,0.0
1694738996.458791,-22.94921875,-55.6640625,-69.82421875,-20.01953125,0.0
1694738996.462693,-27.34375,-64.453125,-66.40625,-17.08984375,0.0
1694738996.466595,-8.30078125,-53.7109375,-70.3125,-9.765625,0.0
1694738996.470497,6.34765625,-47.8515625,-74.21875,-3.41796875,0.0
1694738996.4743989,7.8125,-46.38671875,-73.2421875,-1.953125,0.0
1694738996.4783008,4.39453125,-41.9921875,-73.73046875,-1.46484375,0.0
1694738996.4822028,6.34765625,-46.38671875,-76.66015625,-6.34765625,0.0
1694738996.4861047,2.44140625,-48.828125,-83.49609375,-2.44140625,0.0
1694738996.4900067,-10.25390625,-51.26953125,-83.984375,15.625,0.0
1694738996.493909,-12.6953125,-53.22265625,-82.03125,1.953125,0.0
1694738996.4978578,-14.16015625,-55.17578125,-82.03125,-16.11328125,0.0
1694738996.5017598,-12.20703125,-53.22265625,-77.63671875,0.48828125,0.0
1694738996.5056617,-12.6953125,-53.22265625,-74.21875,8.30078125,0.0
1694738996.509564,-19.53125,-49.31640625,-71.77734375,-8.7890625,0.0
1694738996.513466,-17.08984375,-49.8046875,-68.84765625,-21.97265625,0.0
1694738996.5173678,-9.765625,-54.6875,-68.359375,-9.765625,0.0
1694738996.5212698,-11.71875,-46.38671875,-69.3359375,2.44140625,0.0
1694738996.5251718,-10.25390625,-42.96875,-72.265625,1.46484375,0.0
1694738996.5290737,-13.18359375,-49.8046875,-74.21875,0.0,0.0
1694738996.5329757,-22.4609375,-49.8046875,-70.80078125,-0.48828125,0.0
1694738996.5368776,-25.87890625,-51.26953125,-69.82421875,-8.30078125,0.0
1694738996.5407798,-32.2265625,-55.17578125,-66.89453125,-21.484375,0.0
1694738996.544722,-20.5078125,-55.17578125,-66.89453125,-23.4375,0.0
1694738996.548624,-13.18359375,-57.12890625,-69.82421875,-21.484375,0.0
1694738996.552526,-17.578125,-53.22265625,-70.3125,-22.94921875,0.0
1694738996.556428,-22.94921875,-51.26953125,-72.265625,-23.4375,0.0
1694738996.56033,-24.4140625,-47.8515625,-69.82421875,-20.01953125,0.0
1694738996.5642319,-20.5078125,-43.9453125,-67.87109375,-9.27734375,0.0
1694738996.568134,-19.53125,-47.36328125,-70.80078125,-8.7890625,0.0
1694738996.572036,-13.18359375,-49.8046875,-68.84765625,-16.11328125,0.0
1694738996.575938,-8.7890625,-42.48046875,-65.4296875,-3.90625,0.0
1694738996.57984,-9.765625,-35.64453125,-68.84765625,2.44140625,0.0
1694738996.583742,-16.11328125,-45.8984375,-74.21875,-11.71875,0.0
1694738996.5876439,-21.484375,-58.59375,-74.70703125,-8.30078125,0.0
1694738996.5915887,-1.953125,-43.9453125,-75.68359375,-5.859375,0.0
1694738996.595491,-6.34765625,-22.94921875,-81.54296875,-19.04296875,0.0
1694738996.599393,-34.66796875,-33.203125,-78.61328125,-27.83203125,0.0
1694738996.6032948,-23.92578125,-36.62109375,-76.171875,-15.13671875,0.0
1694738996.6071968,-1.953125,-31.73828125,-77.63671875,2.44140625,0.0
1694738996.6110988,-6.8359375,-36.62109375,-78.61328125,1.46484375,0.0
1694738996.6150007,-10.7421875,-46.875,-81.0546875,-3.41796875,0.0
1694738996.6189027,-10.25390625,-58.59375,-79.1015625,0.48828125,0.0
1694738996.6228049,0.9765625,-42.96875,-70.3125,-0.9765625,0.0
1694738996.6267068,15.625,-34.1796875,-71.77734375,-5.37109375,0.0
1694738996.6306088,12.20703125,-37.59765625,-73.2421875,-4.39453125,0.0
1694738996.6345108,0.9765625,-48.828125,-77.63671875,-4.39453125,0.0
1694738996.63845,-13.18359375,-55.17578125,-79.58984375,-12.6953125,0.0
1694738996.6423519,-8.7890625,-52.734375,-69.82421875,-16.6015625,0.0
1694738996.646254,-0.9765625,-55.6640625,-65.91796875,-12.6953125,0.0
1694738996.650156,-2.44140625,-58.59375,-70.80078125,-2.44140625,0.0
1694738996.654058,-6.34765625,-53.22265625,-69.3359375,-0.9765625,0.0
1694738996.65796,-0.9765625,-50.29296875,-69.82421875,2.9296875,0.0
1694738996.661862,1.953125,-53.22265625,-78.125,7.32421875,0.0
1694738996.6657639,-9.27734375,-55.17578125,-75.1953125,-5.859375,0.0
1694738996.669666,-0.48828125,-43.9453125,-71.77734375,-14.6484375,0.0
1694738996.673568,-3.41796875,-43.9453125,-73.73046875,-13.18359375,0.0
1694738996.67747,-15.625,-62.5,-74.70703125,-2.44140625,0.0
1694738996.681372,-16.6015625,-62.98828125,-72.265625,-3.41796875,0.0
1694738996.6853044,-18.5546875,-58.59375,-69.82421875,-11.71875,0.0
1694738996.6892066,-19.04296875,-66.40625,-78.125,-13.18359375,0.0
1694738996.6931086,-22.4609375,-61.03515625,-92.7734375,-20.01953125,0.0
1694738996.6970105,-17.578125,-58.10546875,-93.75,-14.16015625,0.0
1694738996.7009125,-15.13671875,-62.5,-82.51953125,-10.25390625,0.0
1694738996.7048144,-15.13671875,-66.40625,-78.125,-5.859375,0.0
1694738996.7087164,-20.01953125,-63.96484375,-82.03125,-25.87890625,0.0
1694738996.7126186,-20.01953125,-58.59375,-83.0078125,-44.921875,0.0
1694738996.7165205,-18.06640625,-60.546875,-83.0078125,-27.83203125,0.0
1694738996.7204225,-6.8359375,-58.10546875,-85.9375,-20.99609375,0.0
1694738996.7243245,-16.6015625,-59.08203125,-88.8671875,-25.390625,0.0
1694738996.7282264,-23.92578125,-60.05859375,-84.9609375,-20.99609375,0.0
1694738996.7321877,-12.20703125,-57.6171875,-81.0546875,-17.578125,0.0
1694738996.7360897,-8.7890625,-61.03515625,-83.984375,-21.97265625,0.0
1694738996.7399917,-14.16015625,-65.4296875,-82.03125,-14.6484375,0.0
1694738996.7438936,-19.53125,-63.4765625,-82.03125,-10.7421875,0.0
1694738996.7477956,-17.08984375,-63.96484375,-87.40234375,-27.83203125,0.0
1694738996.7516978,-22.94921875,-69.82421875,-89.35546875,-25.87890625,0.0
1694738996.7555997,-25.87890625,-74.21875,-86.42578125,-11.71875,0.0
1694738996.7595017,-20.5078125,-70.80078125,-81.0546875,-22.94921875,0.0
1694738996.7634037,-13.671875,-73.73046875,-86.9140625,-26.3671875,0.0
1694738996.7673056,-20.99609375,-87.40234375,-95.21484375,-29.296875,0.0
1694738996.7712076,-25.87890625,-86.9140625,-93.75,-29.78515625,0.0
1694738996.7751098,-26.3671875,-83.0078125,-91.796875,-26.85546875,0.0
1694738996.7790642,-29.296875,-94.7265625,-91.796875,-23.4375,0.0
1694738996.7829661,-19.04296875,-95.703125,-82.51953125,-3.41796875,0.0
1694738996.7868683,-11.23046875,-87.40234375,-80.078125,-5.37109375,0.0
1694738996.7907703,-20.5078125,-90.33203125,-92.28515625,-32.2265625,0.0
1694738996.7946723,-28.3203125,-94.23828125,-98.6328125,-33.203125,0.0
1694738996.7985742,-26.85546875,-89.35546875,-100.09765625,-31.25,0.0
1694738996.8024762,-34.66796875,-89.35546875,-102.05078125,-30.76171875,0.0
1694738996.8063781,-23.92578125,-82.51953125,-103.02734375,-28.80859375,0.0
1694738996.8102803,-15.625,-74.21875,-101.07421875,-34.1796875,0.0
1694738996.8141823,-28.3203125,-88.37890625,-101.5625,-29.296875,0.0
1694738996.8180842,-26.85546875,-85.44921875,-100.09765625,-36.1328125,0.0
1694738996.8219862,-19.04296875,-79.58984375,-92.7734375,-30.2734375,0.0
1694738996.8259435,-18.5546875,-83.0078125,-88.37890625,-21.97265625,0.0
1694738996.8298457,-14.16015625,-81.0546875,-90.8203125,-22.4609375,0.0
1694738996.8337476,-11.71875,-76.171875,-90.33203125,-20.5078125,0.0
1694738996.8376496,-15.13671875,-73.2421875,-90.33203125,-23.92578125,0.0
1694738996.8415515,-18.06640625,-78.61328125,-89.35546875,-31.73828125,0.0
1694738996.8454537,-0.9765625,-82.51953125,-82.03125,-26.85546875,0.0
1694738996.8493557,4.39453125,-72.265625,-79.1015625,-18.5546875,0.0
1694738996.8532577,-19.04296875,-69.3359375,-79.58984375,-24.4140625,0.0
1694738996.8571596,-29.78515625,-87.40234375,-80.56640625,-21.97265625,0.0
1694738996.8610616,-10.7421875,-81.54296875,-76.171875,-8.30078125,0.0
1694738996.8649638,0.48828125,-61.5234375,-80.078125,-15.13671875,0.0
1694738996.8688657,9.27734375,-63.4765625,-79.58984375,-20.99609375,0.0
1694738996.8728168,0.9765625,-72.75390625,-74.70703125,-18.06640625,0.0
1694738996.8767188,-16.6015625,-67.87109375,-79.1015625,-19.53125,0.0
1694738996.880621,-11.71875,-54.6875,-79.58984375,-30.76171875,0.0
1694738996.884523,-20.5078125,-59.08203125,-77.63671875,-25.390625,0.0
1694738996.8884249,-18.06640625,-62.5,-78.61328125,-7.32421875,0.0
1694738996.8923268,-4.8828125,-51.26953125,-83.49609375,-16.11328125,0.0
1694738996.8962288,-9.765625,-49.31640625,-84.9609375,-29.78515625,0.0
1694738996.900131,-7.8125,-58.10546875,-76.171875,-33.203125,0.0
1694738996.904033,-5.859375,-65.4296875,-72.75390625,-18.5546875,0.0
1694738996.907935,-9.27734375,-54.19921875,-71.2890625,-11.23046875,0.0
1694738996.9118369,-17.08984375,-49.8046875,-71.2890625,-23.92578125,0.0
1694738996.915739,-31.25,-53.22265625,-76.66015625,-26.85546875,0.0
1694738996.919684,-25.390625,-52.734375,-75.68359375,-17.578125,0.0
1694738996.923586,-5.859375,-51.26953125,-73.73046875,-12.20703125,0.0
1694738996.9274879,-0.48828125,-46.875,-75.1953125,-15.13671875,0.0
1694738996.9313898,-3.41796875,-54.6875,-76.171875,-17.08984375,0.0
1694738996.9352918,-17.08984375,-56.640625,-72.265625,-20.01953125,0.0
1694738996.939194,-22.94921875,-58.59375,-75.1953125,-18.06640625,0.0
1694738996.943096,-18.5546875,-61.03515625,-77.1484375,-21.97265625,0.0
1694738996.946998,-9.27734375,-64.94140625,-73.2421875,-13.671875,0.0
1694738996.9508998,-18.5546875,-65.91796875,-72.75390625,-14.6484375,0.0
1694738996.954802,-19.04296875,-58.10546875,-73.2421875,-21.484375,0.0
1694738996.958704,-8.30078125,-63.96484375,-68.84765625,-6.34765625,0.0
1694738996.962606,-7.8125,-76.171875,-72.265625,-6.34765625,0.0
1694738996.9665446,-7.8125,-59.08203125,-79.1015625,-21.97265625,0.0
1694738996.9704466,-24.90234375,-55.6640625,-88.8671875,-29.296875,0.0
1694738996.9743485,-20.5078125,-65.4296875,-87.40234375,-24.4140625,0.0
1694738996.9782507,-15.625,-60.546875,-80.078125,-13.671875,0.0
1694738996.9821527,-14.16015625,-53.22265625,-85.44921875,-19.53125,0.0
1694738996.9860547,-20.5078125,-55.17578125,-82.51953125,-32.71484375,0.0
1694738996.9899566,-19.53125,-61.5234375,-75.68359375,-22.94921875,0.0
1694738996.9938588,-13.671875,-62.5,-75.68359375,-17.08984375,0.0
1694738996.9977608,-24.90234375,-61.03515625,-73.2421875,-20.01953125,0.0
1694738997.0016627,-23.4375,-65.4296875,-73.2421875,-19.04296875,0.0
1694738997.0055647,-12.20703125,-74.70703125,-76.171875,-24.4140625,0.0
1694738997.009467,-7.32421875,-74.21875,-77.63671875,-29.296875,0.0
1694738997.013408,-15.625,-62.01171875,-66.40625,-25.87890625,0.0
1694738997.01731,-20.5078125,-61.03515625,-60.546875,-27.34375,0.0
1694738997.021212,-20.01953125,-68.84765625,-66.40625,-34.66796875,0.0
1694738997.025114,-15.625,-70.80078125,-70.80078125,-37.109375,0.0
1694738997.029016,-16.11328125,-61.03515625,-66.40625,-23.4375,0.0
1694738997.032918,-10.7421875,-62.01171875,-57.12890625,-9.27734375,0.0
1694738997.0368202,-9.27734375,-62.01171875,-58.10546875,-19.04296875,0.0
1694738997.0407221,-22.4609375,-53.22265625,-65.4296875,-32.71484375,0.0
1694738997.044624,-6.8359375,-45.8984375,-73.2421875,-27.34375,0.0
1694738997.048526,-5.859375,-49.8046875,-67.87109375,-22.94921875,0.0
1694738997.0524282,-6.34765625,-57.6171875,-55.6640625,-17.578125,0.0
1694738997.0563302,-8.30078125,-48.33984375,-56.15234375,-10.7421875,0.0
1694738997.0602646,-14.16015625,-43.9453125,-61.03515625,-19.53125,0.0
1694738997.0641668,0.0,-48.33984375,-62.5,-14.16015625,0.0
1694738997.0680687,-2.44140625,-49.31640625,-62.98828125,-14.6484375,0.0
1694738997.0719707,-11.23046875,-51.7578125,-63.4765625,-22.4609375,0.0
1694738997.0758727,-2.9296875,-54.6875,-63.4765625,-16.11328125,0.0
1694738997.0797749,0.9765625,-55.6640625,-62.5,-5.37109375,0.0
1694738997.0836768,-5.37109375,-50.78125,-58.59375,-13.671875,0.0
1694738997.0875788,-7.32421875,-45.41015625,-54.19921875,-15.13671875,0.0
1694738997.0914807,-8.30078125,-41.9921875,-52.734375,-6.34765625,0.0
1694738997.095383,-1.46484375,-38.57421875,-56.640625,0.9765625,0.0
1694738997.099285,-3.90625,-42.48046875,-60.05859375,2.44140625,0.0
1694738997.1031868,-11.23046875,-38.57421875,-57.6171875,-5.37109375,0.0
1694738997.10715,3.41796875,-30.2734375,-56.640625,-6.8359375,0.0
1694738997.111052,15.625,-29.296875,-56.15234375,-0.48828125,0.0
1694738997.1149542,10.25390625,-29.78515625,-53.7109375,-0.9765625,0.0
1694738997.1188562,0.9765625,-33.203125,-53.7109375,-5.37109375,0.0
1694738997.1227582,3.41796875,-33.69140625,-52.734375,3.41796875,0.0
1694738997.12666,14.16015625,-35.15625,-51.26953125,12.6953125,0.0
1694738997.1305623,11.23046875,-30.76171875,-47.36328125,5.859375,0.0
1694738997.1344643,-0.48828125,-26.85546875,-44.43359375,-8.30078125,0.0
1694738997.1383662,-12.6953125,-35.64453125,-46.875,0.0,0.0
1694738997.1422682,-0.9765625,-38.57421875,-48.33984375,2.44140625,0.0
1694738997.1461704,2.9296875,-31.25,-48.828125,-3.41796875,0.0
1694738997.1500723,1.953125,-28.80859375,-43.45703125,5.37109375,0.0
1694738997.1540287,5.859375,-23.92578125,-40.52734375,11.71875,0.0
1694738997.1579306,-1.46484375,-26.85546875,-40.0390625,9.27734375,0.0
1694738997.1618328,-0.48828125,-23.92578125,-38.0859375,7.8125,0.0
1694738997.1657348,7.32421875,-19.04296875,-41.9921875,11.23046875,0.0
1694738997.1696367,-0.48828125,-34.1796875,-41.50390625,8.30078125,0.0
1694738997.173539,-5.37109375,-43.9453125,-37.59765625,3.41796875,0.0
1694738997.177441,-21.97265625,-46.875,-48.33984375,-17.578125,0.0
1694738997.1813428,-24.4140625,-44.921875,-50.78125,-21.97265625,0.0
1694738997.1852448,-8.30078125,-37.109375,-46.38671875,-3.90625,0.0
1694738997.189147,-16.11328125,-48.828125,-51.26953125,-9.27734375,0.0
1694738997.193049,-17.578125,-47.36328125,-43.9453125,-15.13671875,0.0
1694738997.196951,-8.7890625,-36.1328125,-42.48046875,-5.859375,0.0
1694738997.2009017,-1.46484375,-33.69140625,-51.7578125,-5.37109375,0.0
1694738997.2048037,-13.671875,-42.48046875,-52.24609375,-14.6484375,0.0
1694738997.208706,-24.4140625,-47.36328125,-51.26953125,-13.671875,0.0
1694738997.2126079,-2.9296875,-42.48046875,-54.19921875,-3.41796875,0.0
1694738997.2165098,-0.48828125,-47.36328125,-50.29296875,-0.9765625,0.0
1694738997.2204118,-22.4609375,-60.05859375,-37.109375,-4.8828125,0.0
1694738997.224314,-33.203125,-46.875,-31.73828125,-17.578125,0.0
1694738997.228216,-24.4140625,-43.45703125,-34.66796875,-22.4609375,0.0
1694738997.232118,-11.23046875,-53.22265625,-43.45703125,-15.625,0.0
1694738997.23602,-12.20703125,-44.921875,-41.9921875,-17.578125,0.0
1694738997.239922,-26.3671875,-32.71484375,-40.52734375,-24.90234375,0.0
1694738997.243824,-28.80859375,-33.203125,-43.45703125,-18.5546875,0.0
1694738997.2477772,-26.3671875,-44.921875,-47.36328125,-8.7890625,0.0
1694738997.2516792,-30.76171875,-44.921875,-51.7578125,-5.859375,0.0
1694738997.2555814,-13.671875,-42.48046875,-46.875,-14.6484375,0.0
1694738997.2594833,-6.8359375,-45.8984375,-51.26953125,-21.484375,0.0
1694738997.2633853,-9.27734375,-47.36328125,-52.24609375,-18.06640625,0.0
1694738997.2672873,-20.99609375,-48.828125,-47.8515625,-18.5546875,0.0
1694738997.2711895,-27.34375,-46.875,-49.31640625,-21.97265625,0.0
1694738997.2750914,-20.5078125,-40.0390625,-44.43359375,-10.25390625,0.0
1694738997.2789934,-29.296875,-38.0859375,-50.29296875,-5.859375,0.0
1694738997.2828956,-32.2265625,-27.83203125,-49.8046875,-20.99609375,0.0
1694738997.2867975,-29.296875,-34.66796875,-50.29296875,-26.3671875,0.0
1694738997.2906995,-21.97265625,-44.43359375,-56.640625,-28.80859375,0.0
1694738997.2946463,-19.53125,-47.8515625,-54.6875,-26.85546875,0.0
1694738997.2985482,-12.20703125,-46.38671875,-51.26953125,-31.25,0.0
1694738997.3024502,-13.671875,-43.9453125,-53.22265625,-31.73828125,0.0
1694738997.3063524,-19.04296875,-50.29296875,-53.22265625,-16.11328125,0.0
1694738997.3102543,-25.87890625,-59.08203125,-58.10546875,-10.25390625,0.0
1694738997.3141563,-29.296875,-67.3828125,-59.08203125,-12.6953125,0.0
1694738997.3180585,-15.13671875,-62.98828125,-52.734375,-12.6953125,0.0
1694738997.3219604,-13.671875,-63.4765625,-58.10546875,-16.6015625,0.0
1694738997.3258624,-9.765625,-57.6171875,-56.640625,-12.6953125,0.0
1694738997.3297646,-8.30078125,-49.8046875,-52.734375,-15.13671875,0.0
1694738997.3336666,-13.671875,-60.546875,-57.6171875,-20.99609375,0.0
1694738997.3375685,-8.7890625,-66.89453125,-53.7109375,-19.53125,0.0
1694738997.341509,-26.3671875,-62.98828125,-51.7578125,-18.06640625,0.0
1694738997.3454113,-36.62109375,-63.96484375,-58.59375,-19.04296875,0.0
1694738997.3493133,-23.92578125,-69.82421875,-58.10546875,-16.6015625,0.0
1694738997.3532152,-18.5546875,-67.3828125,-60.546875,-19.04296875,0.0
1694738997.3571174,-28.80859375,-63.4765625,-57.12890625,-22.4609375,0.0
1694738997.3610194,-24.90234375,-61.5234375,-55.6640625,-24.90234375,0.0
1694738997.3649213,-16.6015625,-66.89453125,-59.08203125,-20.99609375,0.0
1694738997.3688235,-6.34765625,-68.359375,-51.26953125,0.0,0.0
1694738997.3727255,-5.37109375,-54.6875,-47.36328125,0.0,0.0
1694738997.3766274,-5.37109375,-55.17578125,-62.01171875,-13.671875,0.0
1694738997.3805296,-12.6953125,-72.75390625,-72.265625,-26.85546875,0.0
1694738997.3844316,-36.1328125,-81.54296875,-69.3359375,-35.15625,0.0
1694738997.3883662,-32.2265625,-79.1015625,-64.453125,-31.25,0.0
1694738997.3922684,-29.78515625,-76.66015625,-66.89453125,-37.109375,0.0
1694738997.3961704,-40.0390625,-73.73046875,-70.3125,-38.57421875,0.0
1694738997.4000723,-26.3671875,-68.84765625,-62.01171875,-21.97265625,0.0
1694738997.4039745,-21.97265625,-66.40625,-58.10546875,-20.01953125,0.0
1694738997.4078765,-29.296875,-73.73046875,-59.08203125,-26.3671875,0.0
1694738997.4117785,-25.87890625,-74.70703125,-59.08203125,-27.83203125,0.0
1694738997.4156806,-25.87890625,-62.98828125,-56.640625,-36.1328125,0.0
1694738997.4195826,-31.73828125,-60.546875,-51.7578125,-29.296875,0.0
1694738997.4234846,-34.1796875,-72.265625,-49.31640625,-17.578125,0.0
1694738997.4273868,-29.296875,-68.84765625,-57.6171875,-27.34375,0.0
1694738997.4312887,-29.296875,-62.98828125,-64.94140625,-38.57421875,0.0
1694738997.4352252,-25.87890625,-64.453125,-65.91796875,-31.73828125,0.0
1694738997.4391272,-25.390625,-66.40625,-70.3125,-35.15625,0.0
1694738997.4430294,-23.4375,-71.2890625,-70.3125,-35.64453125,0.0
1694738997.4469314,-24.4140625,-59.08203125,-63.4765625,-31.25,0.0
1694738997.4508333,-29.78515625,-52.24609375,-61.03515625,-45.41015625,0.0
1694738997.4547355,-42.96875,-64.453125,-61.03515625,-41.015625,0.0
1694738997.4586375,-30.76171875,-70.3125,-62.5,-27.34375,0.0
1694738997.4625394,-18.5546875,-61.5234375,-67.3828125,-31.25,0.0
1694738997.4664416,-28.80859375,-63.96484375,-65.91796875,-27.83203125,0.0
1694738997.4703436,-21.484375,-71.77734375,-66.40625,-19.53125,0.0
1694738997.4742455,-22.4609375,-74.21875,-67.3828125,-16.11328125,0.0
1694738997.4781477,-25.390625,-67.3828125,-66.40625,-12.6953125,0.0
1694738997.4821126,-11.71875,-66.40625,-63.96484375,-16.11328125,0.0
1694738997.4860146,-10.25390625,-64.94140625,-62.98828125,-18.5546875,0.0
1694738997.4899168,-25.390625,-60.546875,-65.91796875,-15.13671875,0.0
1694738997.4938188,-27.83203125,-56.15234375,-61.03515625,-21.484375,0.0
1694738997.4977207,-22.94921875,-57.12890625,-51.26953125,-22.94921875,0.0
1694738997.501623,-22.4609375,-62.98828125,-53.22265625,-16.11328125,0.0
1694738997.5055249,-28.3203125,-55.6640625,-61.5234375,-20.5078125,0.0
1694738997.509427,-34.66796875,-49.31640625,-64.453125,-31.25,0.0
1694738997.513329,-16.11328125,-51.26953125,-62.98828125,-30.76171875,0.0
1694738997.517231,-9.765625,-54.6875,-63.96484375,-25.390625,0.0
1694738997.5211332,-26.3671875,-57.12890625,-58.10546875,-20.5078125,0.0
1694738997.5250351,-25.87890625,-50.29296875,-55.6640625,-31.73828125,0.0
1694738997.528994,-27.34375,-55.17578125,-63.4765625,-44.43359375,0.0
1694738997.532896,-28.3203125,-60.546875,-67.87109375,-47.8515625,0.0
1694738997.5367982,-12.6953125,-46.875,-66.40625,-41.9921875,0.0
1694738997.5407002,-8.30078125,-40.52734375,-65.91796875,-35.15625,0.0
1694738997.5446022,-11.23046875,-43.45703125,-62.01171875,-32.71484375,0.0
1694738997.5485044,-18.5546875,-46.38671875,-61.03515625,-28.80859375,0.0
1694738997.5524063,-18.06640625,-38.57421875,-53.7109375,-17.578125,0.0
1694738997.5563083,-13.18359375,-27.34375,-45.41015625,-12.6953125,0.0
1694738997.5602105,-17.578125,-37.59765625,-53.22265625,-20.5078125,0.0
1694738997.5641124,-20.99609375,-49.8046875,-62.5,-27.34375,0.0
1694738997.5680146,-16.6015625,-31.25,-56.15234375,-28.80859375,0.0
1694738997.5719166,-20.5078125,-23.92578125,-52.734375,-19.53125,0.0
1694738997.575869,-28.80859375,-30.76171875,-60.546875,-21.484375,0.0
1694738997.5797713,-23.4375,-32.2265625,-58.10546875,-17.578125,0.0
1694738997.5836732,-12.20703125,-29.78515625,-48.33984375,-8.7890625,0.0
1694738997.5875754,0.9765625,-15.625,-54.6875,-16.11328125,0.0
1694738997.5914774,14.16015625,-10.25390625,-53.22265625,-4.39453125,0.0
1694738997.5953794,-5.859375,-27.83203125,-40.0390625,-2.44140625,0.0
1694738997.5992815,-18.5546875,-34.66796875,-41.50390625,-9.765625,0.0
1694738997.6031835,-5.37109375,-34.1796875,-42.48046875,-16.11328125,0.0
1694738997.6070857,-15.625,-41.015625,-46.38671875,-31.25,0.0
1694738997.6109877,-27.83203125,-36.62109375,-45.8984375,-33.69140625,0.0
1694738997.6148896,-30.76171875,-25.390625,-39.0625,-30.76171875,0.0
1694738997.6187918,-21.97265625,-28.80859375,-39.55078125,-26.3671875,0.0
1694738997.6227381,-15.625,-37.109375,-45.8984375,-30.2734375,0.0
1694738997.6266403,-17.08984375,-35.15625,-37.109375,-31.25,0.0
1694738997.6305423,-21.484375,-39.0625,-31.73828125,-15.625,0.0
1694738997.6344445,-13.671875,-42.96875,-34.1796875,-0.48828125,0.0
1694738997.6383464,-16.11328125,-39.55078125,-36.1328125,0.9765625,0.0
1694738997.6422484,-25.390625,-43.45703125,-45.41015625,0.48828125,0.0
1694738997.6461506,-26.3671875,-48.33984375,-45.8984375,2.9296875,0.0
1694738997.6500525,-22.4609375,-43.45703125,-35.15625,2.44140625,0.0
1694738997.6539547,-9.765625,-43.45703125,-36.1328125,-5.859375,0.0
1694738997.6578567,-15.625,-42.48046875,-34.1796875,-25.390625,0.0
1694738997.6617587,-23.92578125,-42.96875,-37.109375,-26.3671875,0.0
1694738997.6656609,-16.11328125,-54.19921875,-43.45703125,-20.01953125,0.0
1694738997.6696098,-7.32421875,-54.6875,-41.50390625,-16.6015625,0.0
1694738997.6735117,-11.23046875,-47.8515625,-38.57421875,-8.30078125,0.0
1694738997.6774137,-28.80859375,-56.640625,-39.0625,-2.9296875,0.0
1694738997.681316,-21.97265625,-60.546875,-43.9453125,-4.39453125,0.0
1694738997.6852179,-9.765625,-50.78125,-43.9453125,-6.34765625,0.0
1694738997.68912,-3.90625,-53.22265625,-44.921875,-3.90625,0.0
1694738997.693022,2.9296875,-55.17578125,-43.9453125,-2.44140625,0.0
1694738997.6969242,-5.859375,-57.6171875,-42.48046875,5.859375,0.0
1694738997.7008262,-10.7421875,-53.22265625,-41.50390625,0.48828125,0.0
1694738997.7047281,-6.8359375,-49.8046875,-42.48046875,-7.8125,0.0
1694738997.7086303,-1.953125,-59.5703125,-45.41015625,-1.46484375,0.0
1694738997.7125323,-3.41796875,-58.59375,-49.31640625,-0.48828125,0.0
1694738997.716475,-9.765625,-53.7109375,-47.8515625,2.44140625,0.0
1694738997.7203772,-4.8828125,-54.19921875,-45.8984375,-4.8828125,0.0
1694738997.7242792,-7.8125,-56.640625,-44.921875,-12.20703125,0.0
1694738997.7281811,-12.20703125,-55.17578125,-44.43359375,-16.6015625,0.0
1694738997.7320833,-10.7421875,-56.640625,-47.36328125,-19.53125,0.0
1694738997.7359853,-8.7890625,-60.05859375,-52.734375,-14.6484375,0.0
1694738997.7398875,-2.9296875,-57.6171875,-52.24609375,-8.30078125,0.0
1694738997.7437894,-8.7890625,-61.5234375,-49.31640625,-0.9765625,0.0
1694738997.7476916,-8.7890625,-50.78125,-41.9921875,0.9765625,0.0
1694738997.7515936,-4.8828125,-48.33984375,-39.55078125,-1.46484375,0.0
1694738997.7554955,-9.27734375,-57.6171875,-45.41015625,-16.6015625,0.0
1694738997.7593977,-8.7890625,-52.734375,-44.43359375,-22.4609375,0.0
1694738997.7633345,-19.04296875,-60.05859375,-40.52734375,-11.71875,0.0
1694738997.7672365,-21.484375,-70.3125,-47.36328125,-13.671875,0.0
1694738997.7711387,-13.671875,-76.171875,-51.7578125,-8.30078125,0.0
1694738997.7750406,-18.06640625,-69.82421875,-47.8515625,-11.71875,0.0
1694738997.7789426,-19.04296875,-68.84765625,-52.24609375,-23.92578125,0.0
1694738997.7828448,-21.97265625,-78.61328125,-55.17578125,-14.6484375,0.0
1694738997.7867467,-15.625,-78.61328125,-58.10546875,-9.765625,0.0
1694738997.790649,-12.6953125,-68.84765625,-58.10546875,-11.71875,0.0
1694738997.794551,-21.484375,-60.546875,-53.22265625,-19.53125,0.0
1694738997.798453,-22.94921875,-64.94140625,-64.94140625,-16.11328125,0.0
1694738997.802355,-26.3671875,-66.89453125,-72.265625,-12.6953125,0.0
1694738997.806257,-15.625,-63.4765625,-63.96484375,-14.6484375,0.0
1694738997.8102217,-3.41796875,-63.96484375,-59.5703125,-14.6484375,0.0
1694738997.8141239,-11.71875,-67.3828125,-57.12890625,-9.765625,0.0
1694738997.8180258,-13.18359375,-69.82421875,-61.5234375,-4.8828125,0.0
1694738997.821928,-17.578125,-59.08203125,-73.2421875,-14.16015625,0.0
1694738997.82583,-15.625,-59.08203125,-78.125,-26.85546875,0.0
1694738997.829732,-17.578125,-66.89453125,-78.125,-29.296875,0.0
1694738997.8336341,-35.15625,-63.4765625,-77.1484375,-23.4375,0.0
1694738997.837536,-38.0859375,-62.98828125,-73.73046875,-21.484375,0.0
1694738997.8414383,-34.1796875,-60.546875,-66.40625,-33.203125,0.0
1694738997.8453403,-24.4140625,-61.03515625,-62.98828125,-20.99609375,0.0
1694738997.8492424,-16.6015625,-63.4765625,-60.546875,-3.90625,0.0
1694738997.8531444,-13.671875,-50.78125,-60.546875,-10.25390625,0.0
1694738997.8571026,-21.484375,-45.41015625,-61.5234375,-9.27734375,0.0
1694738997.8610048,-27.83203125,-50.29296875,-60.546875,-6.8359375,0.0
1694738997.8649068,-24.4140625,-47.36328125,-55.6640625,-10.25390625,0.0
1694738997.8688087,-12.20703125,-36.62109375,-58.59375,-17.08984375,0.0
1694738997.872711,-10.7421875,-42.96875,-66.40625,-28.80859375,0.0
1694738997.876613,-20.01953125,-54.19921875,-68.84765625,-28.80859375,0.0
1694738997.880515,-14.6484375,-50.29296875,-63.4765625,-21.484375,0.0
1694738997.884417,-21.484375,-52.734375,-63.4765625,-21.484375,0.0
1694738997.8883193,-18.5546875,-54.19921875,-67.87109375,-12.20703125,0.0
1694738997.8922212,-11.23046875,-47.36328125,-73.73046875,-7.32421875,0.0
1694738997.8961234,-15.13671875,-42.96875,-76.66015625,-16.6015625,0.0
1694738997.9000254,-14.6484375,-41.50390625,-80.56640625,-34.66796875,0.0
1694738997.9039857,-16.11328125,-50.29296875,-84.47265625,-37.59765625,0.0
1694738997.9078877,-19.53125,-53.22265625,-78.125,-20.01953125,0.0
1694738997.91179,-25.390625,-52.734375,-78.125,-20.99609375,0.0
1694738997.9156919,-23.92578125,-52.24609375,-86.42578125,-32.71484375,0.0
1694738997.919594,1.46484375,-51.7578125,-87.890625,-20.5078125,0.0
1694738997.923496,10.25390625,-57.12890625,-82.03125,-12.20703125,0.0
1694738997.927398,-10.7421875,-58.59375,-83.49609375,-34.66796875,0.0
1694738997.9313002,-25.390625,-62.98828125,-92.7734375,-33.203125,0.0
1694738997.9352021,-33.69140625,-68.84765625,-93.26171875,-23.4375,0.0
1694738997.9391043,-35.64453125,-73.2421875,-90.8203125,-20.01953125,0.0
1694738997.9430063,-31.25,-65.4296875,-77.1484375,-15.13671875,0.0
1694738997.9469085,-39.55078125,-60.05859375,-78.125,-23.4375,0.0
1694738997.950863,-32.71484375,-61.03515625,-88.37890625,-27.83203125,0.0
1694738997.9547648,-23.92578125,-60.05859375,-89.84375,-40.52734375,0.0
1694738997.958667,-40.0390625,-61.03515625,-90.8203125,-43.9453125,0.0
1694738997.962569,-33.203125,-54.19921875,-88.37890625,-32.71484375,0.0
1694738997.9664712,-20.5078125,-52.24609375,-84.9609375,-10.25390625,0.0
1694738997.9703732,-26.3671875,-58.10546875,-88.8671875,-7.32421875,0.0
1694738997.9742754,-20.01953125,-58.59375,-92.7734375,-18.5546875,0.0
1694738997.9781773,-28.3203125,-53.22265625,-95.21484375,-19.53125,0.0
1694738997.9820795,-19.53125,-55.6640625,-99.12109375,-9.765625,0.0
1694738997.9859815,-13.671875,-50.78125,-94.7265625,-15.625,0.0
1694738997.9898837,-25.390625,-48.33984375,-90.33203125,-27.83203125,0.0
1694738997.9937856,-2.9296875,-45.41015625,-98.14453125,-25.390625,0.0
1694738997.997734,0.48828125,-44.43359375,-89.84375,-6.34765625,0.0
1694738998.001636,-22.4609375,-41.015625,-81.0546875,-5.37109375,0.0
1694738998.0055382,-26.3671875,-46.38671875,-87.890625,-24.90234375,0.0
1694738998.0094402,-21.97265625,-57.6171875,-97.16796875,-24.4140625,0.0
1694738998.0133424,-24.4140625,-62.5,-100.5859375,-32.2265625,0.0
1694738998.0172443,-23.92578125,-63.96484375,-96.19140625,-41.015625,0.0
1694738998.0211465,-19.04296875,-63.96484375,-99.609375,-26.3671875,0.0
1694738998.0250485,-1.953125,-56.640625,-108.88671875,-21.484375,0.0
1694738998.0289507,-5.859375,-54.6875,-104.4921875,-18.06640625,0.0
1694738998.0328526,-28.3203125,-59.5703125,-105.95703125,-15.13671875,0.0
1694738998.0367548,-30.76171875,-56.640625,-111.81640625,-17.08984375,0.0
1694738998.0406568,-13.671875,-66.89453125,-103.02734375,-10.7421875,0.0
1694738998.044599,-9.27734375,-64.94140625,-103.02734375,-8.7890625,0.0
1694738998.0485013,-20.99609375,-46.875,-103.515625,-14.16015625,0.0
1694738998.0524032,-24.90234375,-53.7109375,-99.12109375,-9.765625,0.0
1694738998.0563054,-26.3671875,-61.5234375,-104.4921875,-8.7890625,0.0
1694738998.0602074,-21.484375,-58.59375,-112.3046875,-18.5546875,0.0
1694738998.0641096,-12.6953125,-57.6171875,-113.76953125,-20.99609375,0.0
1694738998.0680115,-19.04296875,-56.640625,-113.28125,-15.625,0.0
1694738998.0719137,-28.3203125,-60.05859375,-104.98046875,-14.16015625,0.0
1694738998.0758157,-25.390625,-63.4765625,-99.12109375,-16.6015625,0.0
1694738998.0797179,-16.11328125,-54.6875,-105.46875,-15.13671875,0.0
1694738998.0836198,-30.76171875,-44.43359375,-109.86328125,-14.6484375,0.0
1694738998.087522,-24.4140625,-50.29296875,-106.4453125,-23.92578125,0.0
1694738998.0914667,-10.7421875,-47.36328125,-103.515625,-29.78515625,0.0
1694738998.0953689,-16.6015625,-46.875,-103.02734375,-29.78515625,0.0
1694738998.0992708,-21.97265625,-47.8515625,-107.91015625,-23.92578125,0.0
1694738998.103173,-21.97265625,-44.43359375,-102.05078125,-28.3203125,0.0
1694738998.107075,-26.3671875,-47.8515625,-97.16796875,-33.69140625,0.0
1694738998.1109772,-23.92578125,-49.8046875,-99.12109375,-27.34375,0.0
1694738998.1148791,-18.06640625,-50.78125,-89.84375,-22.4609375,0.0
1694738998.1187813,-29.296875,-59.5703125,-83.0078125,-14.6484375,0.0
1694738998.1226833,-25.87890625,-51.7578125,-82.03125,-14.6484375,0.0
1694738998.1265855,-31.25,-46.38671875,-83.984375,-29.296875,0.0
1694738998.1304874,-38.57421875,-48.33984375,-89.35546875,-31.25,0.0
1694738998.1343896,-30.76171875,-41.50390625,-86.9140625,-21.97265625,0.0
1694738998.138328,-20.01953125,-40.52734375,-81.54296875,-18.5546875,0.0
1694738998.14223,-8.30078125,-40.52734375,-79.58984375,-14.6484375,0.0
1694738998.1461322,-15.13671875,-47.8515625,-77.1484375,-19.53125,0.0
1694738998.1500342,-8.30078125,-49.31640625,-74.21875,-27.34375,0.0
1694738998.1539364,-8.30078125,-37.59765625,-70.3125,-23.4375,0.0
1694738998.1578383,-14.6484375,-30.2734375,-66.89453125,-20.99609375,0.0
1694738998.1617405,-12.6953125,-37.109375,-67.3828125,-14.16015625,0.0
1694738998.1656425,-9.27734375,-38.0859375,-67.3828125,-6.8359375,0.0
1694738998.1695447,-19.53125,-27.83203125,-63.4765625,-13.18359375,0.0
1694738998.1734467,-32.2265625,-39.55078125,-69.3359375,-19.04296875,0.0
1694738998.1773489,-15.13671875,-53.7109375,-68.84765625,-14.16015625,0.0
1694738998.1812508,-2.44140625,-44.43359375,-63.4765625,-13.18359375,0.0
1694738998.1851835,-12.6953125,-36.62109375,-62.5,-13.18359375,0.0
1694738998.1890857,1.953125,-39.0625,-62.98828125,-16.11328125,0.0
1694738998.1929877,8.30078125,-40.0390625,-65.4296875,-25.87890625,0.0
1694738998.1968899,-0.48828125,-36.1328125,-55.6640625,-20.99609375,0.0
1694738998.2007918,3.41796875,-35.64453125,-53.22265625,-21.484375,0.0
1694738998.204694,-3.90625,-34.66796875,-59.5703125,-24.4140625,0.0
1694738998.2085962,-4.39453125,-33.203125,-57.12890625,-19.53125,0.0
1694738998.2124982,1.46484375,-35.64453125,-65.4296875,-21.484375,0.0
1694738998.2164004,-16.11328125,-41.9921875,-65.91796875,-24.90234375,0.0
1694738998.2203023,-23.92578125,-52.734375,-49.8046875,-32.2265625,0.0
1694738998.2242045,-29.296875,-66.89453125,-55.17578125,-35.64453125,0.0
1694738998.2281065,-35.15625,-54.19921875,-50.29296875,-25.87890625,0.0
1694738998.2320662,-23.92578125,-48.828125,-45.41015625,-30.2734375,0.0
1694738998.235968,-28.3203125,-60.546875,-51.7578125,-32.2265625,0.0
1694738998.2398703,-38.0859375,-58.10546875,-51.7578125,-25.390625,0.0
1694738998.2437725,-27.83203125,-47.36328125,-51.26953125,-21.484375,0.0
1694738998.2476745,-22.4609375,-48.828125,-48.33984375,-20.99609375,0.0
1694738998.2515767,-16.11328125,-54.6875,-50.29296875,-18.5546875,0.0
1694738998.2554786,-20.01953125,-52.734375,-50.29296875,-10.7421875,0.0
1694738998.2593808,-26.85546875,-43.9453125,-47.8515625,-21.484375,0.0
1694738998.2632828,-33.203125,-50.29296875,-53.22265625,-25.87890625,0.0
1694738998.267185,-36.1328125,-60.546875,-58.59375,-14.16015625,0.0
1694738998.271087,-27.34375,-59.08203125,-58.10546875,-20.99609375,0.0
1694738998.2749891,-30.76171875,-46.38671875,-56.15234375,-26.85546875,0.0
1694738998.278943,-33.203125,-41.015625,-50.78125,-23.92578125,0.0
1694738998.2828453,-26.3671875,-50.29296875,-50.78125,-17.578125,0.0
1694738998.2867472,-28.3203125,-51.26953125,-59.08203125,-28.80859375,0.0
1694738998.2906494,-28.80859375,-55.17578125,-54.19921875,-27.83203125,0.0
1694738998.2945514,-23.4375,-47.8515625,-50.78125,-3.41796875,0.0
1694738998.2984536,-28.3203125,-44.921875,-49.31640625,-6.34765625,0.0
1694738998.3023555,-24.90234375,-49.31640625,-48.828125,-19.53125,0.0
1694738998.3062577,-29.78515625,-44.921875,-54.19921875,-20.99609375,0.0
1694738998.3101597,-26.3671875,-41.9921875,-55.6640625,-19.53125,0.0
1694738998.3140619,-13.18359375,-44.43359375,-55.17578125,-18.5546875,0.0
1694738998.317964,-20.01953125,-35.64453125,-47.8515625,-25.390625,0.0
1694738998.321866,-25.87890625,-31.25,-43.45703125,-26.85546875,0.0
1694738998.3258219,-30.76171875,-33.69140625,-52.24609375,-24.90234375,0.0
1694738998.3297238,-33.203125,-37.59765625,-53.7109375,-10.25390625,0.0
1694738998.333626,-36.1328125,-34.66796875,-51.26953125,-15.13671875,0.0
1694738998.337528,-31.73828125,-37.59765625,-48.828125,-30.76171875,0.0
1694738998.3414302,-24.4140625,-42.96875,-50.78125,-23.92578125,0.0
1694738998.3453324,-20.01953125,-41.015625,-56.15234375,-11.23046875,0.0
1694738998.3492343,-8.7890625,-30.2734375,-54.19921875,-9.765625,0.0
1694738998.3531365,-20.5078125,-24.4140625,-50.78125,-23.4375,0.0
1694738998.3570385,-21.97265625,-31.25,-52.734375,-18.06640625,0.0
1694738998.3609407,-9.27734375,-28.80859375,-50.78125,-20.99609375,0.0
1694738998.3648427,-21.97265625,-24.4140625,-44.43359375,-40.0390625,0.0
1694738998.3687449,-28.3203125,-26.85546875,-47.8515625,-26.3671875,0.0
1694738998.3726954,-14.16015625,-34.1796875,-47.36328125,-4.39453125,0.0
1694738998.3765976,-7.8125,-30.76171875,-47.36328125,-0.48828125,0.0
1694738998.3804996,1.953125,-21.484375,-45.8984375,-2.44140625,0.0
1694738998.3844018,-2.9296875,-16.6015625,-44.921875,-11.23046875,0.0
1694738998.388304,-10.7421875,-19.04296875,-52.24609375,-8.7890625,0.0
1694738998.392206,0.9765625,-16.11328125,-52.734375,10.25390625,0.0
1694738998.3961082,14.16015625,-11.23046875,-52.734375,5.37109375,0.0
1694738998.40001,9.765625,-17.08984375,-52.24609375,-3.90625,0.0
1694738998.4039123,-9.27734375,-19.53125,-39.55078125,0.48828125,0.0
1694738998.4078145,-24.4140625,-26.85546875,-35.15625,-7.32421875,0.0
1694738998.4117165,-23.92578125,-41.015625,-42.48046875,-23.92578125,0.0
1694738998.4156187,-12.20703125,-47.8515625,-48.828125,-16.11328125,0.0
1694738998.4195633,-10.25390625,-48.828125,-59.08203125,-10.25390625,0.0
1694738998.4234653,-25.390625,-39.55078125,-61.03515625,-17.578125,0.0
1694738998.4273674,-20.99609375,-34.66796875,-62.01171875,-20.5078125,0.0
1694738998.4312694,-10.7421875,-34.1796875,-59.08203125,-21.484375,0.0
1694738998.4351716,-17.08984375,-31.73828125,-53.7109375,-25.390625,0.0
1694738998.4390738,-20.01953125,-33.203125,-56.640625,-25.87890625,0.0
1694738998.4429758,-22.94921875,-30.2734375,-59.5703125,-23.4375,0.0
1694738998.446878,-29.296875,-38.0859375,-57.12890625,-17.578125,0.0
1694738998.45078,-17.08984375,-36.62109375,-55.6640625,-13.18359375,0.0
1694738998.454682,-6.34765625,-22.4609375,-58.59375,-13.671875,0.0
1694738998.4585843,-9.765625,-28.3203125,-56.640625,-16.6015625,0.0
1694738998.4624863,-14.6484375,-34.66796875,-49.8046875,-8.7890625,0.0
1694738998.4664245,-8.30078125,-27.83203125,-41.50390625,-9.27734375,0.0
1694738998.4703267,-16.11328125,-28.3203125,-42.48046875,-19.04296875,0.0
1694738998.4742289,-18.06640625,-41.015625,-45.41015625,-22.94921875,0.0
1694738998.4781308,-12.6953125,-48.33984375,-44.43359375,-10.7421875,0.0
1694738998.482033,-16.6015625,-48.33984375,-49.31640625,-5.37109375,0.0
1694738998.485935,-23.4375,-54.19921875,-52.734375,-15.13671875,0.0
1694738998.4898372,-17.08984375,-54.19921875,-50.78125,-20.5078125,0.0
1694738998.4937394,-6.34765625,-57.12890625,-56.640625,-10.7421875,0.0
1694738998.4976413,-19.04296875,-53.7109375,-60.05859375,-29.78515625,0.0
1694738998.5015435,-11.71875,-47.8515625,-56.640625,-35.15625,0.0
1694738998.5054455,-17.08984375,-49.8046875,-54.6875,-19.53125,0.0
1694738998.5093477,-19.04296875,-41.015625,-46.875,-19.04296875,0.0
1694738998.5132885,-7.32421875,-39.0625,-45.41015625,-11.71875,0.0
1694738998.5171905,-15.13671875,-44.921875,-48.33984375,-14.16015625,0.0
1694738998.5210927,-18.06640625,-47.8515625,-53.22265625,-15.625,0.0
1694738998.5249946,-12.6953125,-46.875,-58.10546875,-14.6484375,0.0
1694738998.5288968,-8.30078125,-35.64453125,-56.640625,-19.53125,0.0
1694738998.532799,-10.25390625,-39.55078125,-50.78125,-10.25390625,0.0
1694738998.536701,-24.4140625,-48.33984375,-54.6875,-7.32421875,0.0
1694738998.5406032,-12.20703125,-34.66796875,-56.15234375,-16.11328125,0.0
1694738998.5445051,-3.41796875,-18.5546875,-45.8984375,-22.94921875,0.0
1694738998.5484073,-14.6484375,-31.73828125,-47.8515625,-18.5546875,0.0
1694738998.5523095,-12.6953125,-42.48046875,-54.6875,-19.04296875,0.0
1694738998.5562115,-2.9296875,-35.15625,-55.17578125,-17.578125,0.0
1694738998.5601459,-14.6484375,-32.71484375,-51.7578125,-20.01953125,0.0
1694738998.5640478,-24.90234375,-25.87890625,-51.26953125,-28.80859375,0.0
1694738998.56795,-12.20703125,-23.4375,-52.24609375,-16.11328125,0.0
1694738998.571852,-0.48828125,-24.90234375,-49.31640625,-11.71875,0.0
1694738998.5757542,-9.765625,-30.2734375,-40.52734375,-20.01953125,0.0
1694738998.5796564,-12.6953125,-39.55078125,-40.52734375,-13.18359375,0.0
1694738998.5835583,-11.71875,-40.0390625,-47.8515625,-7.8125,0.0
1694738998.5874605,-8.30078125,-31.73828125,-48.33984375,-18.06640625,0.0
1694738998.5913627,-15.625,-34.1796875,-42.48046875,-18.06640625,0.0
1694738998.5952647,-24.4140625,-41.015625,-45.8984375,-20.5078125,0.0
1694738998.5991669,-25.87890625,-37.109375,-48.33984375,-26.85546875,0.0
1694738998.6030688,-31.73828125,-45.41015625,-44.921875,-14.6484375,0.0
1694738998.6070309,-3.41796875,-39.55078125,-46.875,8.7890625,0.0
1694738998.6109328,-0.9765625,-30.2734375,-46.38671875,13.18359375,0.0
1694738998.614835,-26.3671875,-40.52734375,-38.57421875,-11.71875,0.0
1694738998.618737,-17.578125,-46.875,-40.52734375,-18.5546875,0.0
1694738998.6226392,-22.4609375,-53.7109375,-39.55078125,-17.08984375,0.0
1694738998.6265414,-20.5078125,-61.5234375,-36.1328125,-12.6953125,0.0
1694738998.6304433,-20.01953125,-55.6640625,-33.203125,-6.34765625,0.0
1694738998.6343455,-35.15625,-52.734375,-30.76171875,-10.7421875,0.0
1694738998.6382477,-25.390625,-55.17578125,-38.0859375,-12.20703125,0.0
1694738998.6421497,-16.6015625,-62.98828125,-39.0625,-19.53125,0.0
1694738998.646052,-18.5546875,-58.59375,-36.62109375,-28.3203125,0.0
1694738998.649954,-22.94921875,-47.36328125,-41.9921875,-15.625,0.0
1694738998.6539102,-16.11328125,-52.734375,-37.109375,-9.765625,0.0
1694738998.657812,-9.765625,-53.7109375,-38.0859375,-17.578125,0.0
1694738998.6617143,-17.08984375,-48.828125,-42.96875,-10.25390625,0.0
1694738998.6656165,-26.3671875,-52.24609375,-34.66796875,-1.953125,0.0
1694738998.6695185,-15.625,-56.640625,-36.62109375,-0.9765625,0.0
1694738998.6734207,-14.16015625,-57.12890625,-46.875,-9.765625,0.0
1694738998.6773229,-22.94921875,-51.26953125,-50.78125,-21.97265625,0.0
1694738998.6812248,-9.27734375,-49.8046875,-38.57421875,-10.25390625,0.0
1694738998.685127,-0.9765625,-55.6640625,-25.87890625,-4.8828125,0.0
1694738998.6890292,-16.11328125,-61.5234375,-29.78515625,-8.30078125,0.0
1694738998.6929312,-7.8125,-54.6875,-33.69140625,-10.25390625,0.0
1694738998.6968334,-2.9296875,-48.33984375,-38.0859375,-14.16015625,0.0
1694738998.7007828,-12.6953125,-55.6640625,-41.50390625,-10.25390625,0.0
1694738998.7046847,-4.39453125,-56.640625,-34.66796875,-0.48828125,0.0
1694738998.708587,-3.41796875,-45.8984375,-33.69140625,-6.34765625,0.0
1694738998.7124891,0.9765625,-48.33984375,-33.203125,-11.23046875,0.0
1694738998.716391,-5.37109375,-54.6875,-37.59765625,-11.71875,0.0
1694738998.7202933,-9.27734375,-53.7109375,-42.96875,-16.6015625,0.0
1694738998.7241955,-5.859375,-55.17578125,-35.15625,-10.7421875,0.0
1694738998.7280974,-12.20703125,-50.29296875,-33.203125,-15.625,0.0
1694738998.7319996,-20.99609375,-55.17578125,-41.50390625,-16.6015625,0.0
1694738998.7359018,-21.484375,-57.6171875,-36.62109375,-5.37109375,0.0
1694738998.7398038,-15.625,-51.26953125,-35.15625,-2.9296875,0.0
1694738998.743706,-5.859375,-51.26953125,-45.41015625,-11.23046875,0.0
1694738998.7476583,-9.27734375,-47.8515625,-44.43359375,-3.90625,0.0
1694738998.7515604,-13.671875,-40.0390625,-40.52734375,-0.48828125,0.0
1694738998.7554626,-25.87890625,-40.0390625,-45.8984375,-17.08984375,0.0
1694738998.7593646,-22.94921875,-50.78125,-46.875,-18.5546875,0.0
1694738998.7632668,-8.7890625,-50.78125,-40.0390625,-11.71875,0.0
1694738998.767169,-7.32421875,-46.875,-38.0859375,-10.7421875,0.0
1694738998.771071,-0.48828125,-43.45703125,-42.96875,-22.94921875,0.0
1694738998.7749732,-16.6015625,-49.31640625,-35.15625,-20.99609375,0.0
1694738998.7788754,-18.5546875,-55.6640625,-20.5078125,13.18359375,0.0
1694738998.7827773,3.41796875,-41.50390625,-26.3671875,17.08984375,0.0
1694738998.7866795,-13.671875,-37.109375,-41.015625,-17.08984375,0.0
1694738998.7905817,-20.01953125,-36.62109375,-49.31640625,-24.4140625,0.0
1694738998.7945278,-17.578125,-20.01953125,-47.8515625,-25.87890625,0.0
1694738998.79843,-23.4375,-16.11328125,-48.33984375,-31.73828125,0.0
1694738998.8023322,-22.4609375,-24.4140625,-56.15234375,-34.1796875,0.0
1694738998.8062341,-20.99609375,-15.625,-61.03515625,-34.1796875,0.0
1694738998.8101363,-23.4375,-11.23046875,-60.546875,-25.390625,0.0
1694738998.8140385,-19.04296875,-14.16015625,-62.01171875,-29.296875,0.0
1694738998.8179405,-9.27734375,-4.39453125,-59.5703125,-35.64453125,0.0
1694738998.8218427,-3.90625,-3.90625,-50.78125,-21.97265625,0.0
1694738998.8257449,-0.48828125,-7.8125,-54.19921875,-23.4375,0.0
1694738998.829647,5.859375,-3.90625,-55.17578125,-32.71484375,0.0
1694738998.833549,-0.9765625,-8.7890625,-58.10546875,-28.80859375,0.0
1694738998.8374512,-10.7421875,-29.296875,-66.40625,-34.1796875,0.0
1694738998.8413908,-14.6484375,-30.2734375,-57.6171875,-40.0390625,0.0
1694738998.845293,-21.484375,-32.2265625,-56.640625,-29.296875,0.0
1694738998.8491952,-18.5546875,-32.71484375,-60.546875,-21.484375,0.0
1694738998.8530974,-15.625,-22.94921875,-56.640625,-19.53125,0.0
1694738998.8569994,-20.5078125,-32.2265625,-57.6171875,-20.01953125,0.0
1694738998.8609016,-14.16015625,-41.015625,-56.640625,-22.94921875,0.0
1694738998.8648038,-16.11328125,-36.1328125,-53.7109375,-17.08984375,0.0
1694738998.8687057,-19.04296875,-44.43359375,-50.29296875,-15.625,0.0
1694738998.872608,-21.484375,-39.55078125,-50.29296875,-27.34375,0.0
1694738998.8765101,-29.78515625,-26.3671875,-52.734375,-24.90234375,0.0
1694738998.880412,-25.87890625,-32.71484375,-52.24609375,-24.90234375,0.0
1694738998.8843143,-20.99609375,-28.3203125,-55.6640625,-21.97265625,0.0
1694738998.8882482,-24.90234375,-23.92578125,-54.6875,-10.7421875,0.0
1694738998.8921502,-5.37109375,-28.80859375,-50.78125,-9.27734375,0.0
1694738998.8960524,5.37109375,-34.1796875,-51.26953125,-9.27734375,0.0
1694738998.8999546,-2.9296875,-35.15625,-53.22265625,-5.859375,0.0
1694738998.9038565,-1.46484375,-37.59765625,-54.6875,-11.71875,0.0
1694738998.9077587,-10.7421875,-46.875,-58.59375,-22.4609375,0.0
1694738998.911661,-15.13671875,-54.6875,-54.6875,-25.87890625,0.0
1694738998.915563,-12.20703125,-53.7109375,-53.7109375,-21.484375,0.0
1694738998.919465,-21.97265625,-41.50390625,-46.38671875,-15.625,0.0
1694738998.9233673,-5.37109375,-40.52734375,-39.55078125,-12.6953125,0.0
1694738998.9272695,-4.8828125,-49.8046875,-44.921875,-12.6953125,0.0
1694738998.9311714,-32.2265625,-46.38671875,-45.41015625,-17.578125,0.0
1694738998.935108,-20.5078125,-44.921875,-38.57421875,-27.83203125,0.0
1694738998.93901,-6.34765625,-52.734375,-34.66796875,-20.5078125,0.0
1694738998.942912,-17.578125,-56.640625,-41.50390625,-18.5546875,0.0
1694738998.9468143,-17.08984375,-51.7578125,-48.828125,-27.34375,0.0
1694738998.9507165,-13.671875,-51.7578125,-50.29296875,-23.4375,0.0
1694738998.9546185,-18.06640625,-55.17578125,-48.33984375,-17.578125,0.0
1694738998.9585207,-20.5078125,-56.640625,-42.96875,-23.92578125,0.0
1694738998.9624228,-13.671875,-61.03515625,-41.50390625,-26.85546875,0.0
1694738998.9663248,-12.6953125,-49.31640625,-40.0390625,-25.87890625,0.0
1694738998.970227,-21.97265625,-54.19921875,-40.52734375,-23.4375,0.0
1694738998.9741292,-27.83203125,-67.3828125,-44.43359375,-22.94921875,0.0
1694738998.9780314,-28.3203125,-59.5703125,-46.38671875,-25.390625,0.0
1694738998.9819944,-10.25390625,-45.41015625,-49.8046875,-21.484375,0.0
1694738998.9858966,-11.71875,-38.57421875,-46.38671875,-23.4375,0.0
1694738998.9897988,-26.85546875,-44.43359375,-43.9453125,-29.296875,0.0
1694738998.993701,-21.97265625,-36.62109375,-48.33984375,-28.80859375,0.0
1694738998.997603,-19.53125,-34.66796875,-44.921875,-27.83203125,0.0
1694738999.0015051,-15.625,-41.015625,-43.9453125,-22.94921875,0.0
1694738999.0054073,-7.32421875,-32.2265625,-42.48046875,-21.97265625,0.0
1694738999.0093095,-8.30078125,-34.1796875,-41.9921875,-21.484375,0.0
1694738999.0132115,-3.41796875,-33.69140625,-44.43359375,-10.7421875,0.0
1694738999.0171137,10.7421875,-30.76171875,-45.41015625,-3.41796875,0.0
1694738999.021016,-7.32421875,-28.80859375,-45.41015625,-6.34765625,0.0
1694738999.0249178,-12.6953125,-22.4609375,-47.8515625,-10.7421875,0.0
1694738999.0288758,-8.30078125,-25.87890625,-46.875,-13.671875,0.0
1694738999.032778,-13.18359375,-32.71484375,-41.50390625,-6.34765625,0.0
1694738999.0366802,-7.8125,-26.85546875,-38.0859375,-11.23046875,0.0
1694738999.0405822,-10.25390625,-21.97265625,-37.109375,-29.78515625,0.0
1694738999.0444844,-14.16015625,-31.25,-43.45703125,-21.484375,0.0
1694738999.0483866,-1.46484375,-37.109375,-46.875,-6.34765625,0.0
1694738999.0522888,-1.953125,-31.73828125,-43.9453125,-11.23046875,0.0
1694738999.0561907,-20.5078125,-31.73828125,-43.9453125,-10.7421875,0.0
1694738999.060093,-15.625,-39.0625,-44.921875,-7.8125,0.0
1694738999.0639951,-10.7421875,-44.43359375,-42.48046875,-15.625,0.0
1694738999.0678973,-13.671875,-38.57421875,-44.43359375,-29.78515625,0.0
1694738999.0717993,-8.7890625,-41.015625,-42.48046875,-17.08984375,0.0
1694738999.0757513,-20.5078125,-44.921875,-40.52734375,-12.20703125,0.0
1694738999.0796533,-31.73828125,-48.33984375,-39.55078125,-25.87890625,0.0
1694738999.0835555,-11.71875,-49.8046875,-38.57421875,-15.625,0.0
1694738999.0874577,-5.37109375,-40.0390625,-41.50390625,-5.37109375,0.0
1694738999.0913599,-22.4609375,-41.015625,-44.43359375,-24.4140625,0.0
1694738999.0952618,-15.13671875,-48.33984375,-39.0625,-17.578125,0.0
1694738999.099164,-4.8828125,-47.36328125,-34.66796875,-8.30078125,0.0
1694738999.1030662,-10.25390625,-49.8046875,-37.59765625,-14.16015625,0.0
1694738999.1069684,-14.6484375,-48.828125,-31.73828125,-14.16015625,0.0
1694738999.1108704,-22.4609375,-50.78125,-26.85546875,-11.71875,0.0
1694738999.1147726,-15.13671875,-43.45703125,-22.94921875,-3.90625,0.0
1694738999.1186748,2.9296875,-32.71484375,-12.20703125,3.90625,0.0
1694738999.1226203,-4.39453125,-36.62109375,-26.3671875,-21.484375,0.0
1694738999.1265225,-28.3203125,-49.31640625,-37.59765625,-45.8984375,0.0
1694738999.1304247,-46.875,-51.7578125,-38.0859375,-40.52734375,0.0
1694738999.134327,-44.43359375,-56.15234375,-41.50390625,-40.0390625,0.0
1694738999.138229,-34.1796875,-45.41015625,-35.15625,-36.1328125,0.0
1694738999.142131,-48.828125,-41.9921875,-32.2265625,-48.33984375,0.0
1694738999.1460333,-62.5,-48.828125,-41.50390625,-73.2421875,0.0
1694738999.1499355,-67.87109375,-58.10546875,-42.48046875,-80.56640625,0.0
1694738999.1538377,-72.75390625,-66.89453125,-39.55078125,-76.171875,0.0
1694738999.1577396,-80.56640625,-53.22265625,-42.48046875,-78.125,0.0
1694738999.1616418,-72.265625,-39.0625,-50.78125,-76.171875,0.0
1694738999.165544,-76.171875,-46.38671875,-59.5703125,-83.0078125,0.0
1694738999.1694922,-92.28515625,-58.59375,-52.734375,-97.16796875,0.0
1694738999.1733944,-112.79296875,-59.5703125,-59.5703125,-116.2109375,0.0
1694738999.1772966,-124.0234375,-60.546875,-76.171875,-123.53515625,0.0
1694738999.1811988,-118.1640625,-62.01171875,-72.265625,-105.46875,0.0
1694738999.1851008,-110.83984375,-58.10546875,-61.5234375,-107.91015625,0.0
1694738999.189003,-110.3515625,-58.10546875,-58.10546875,-123.53515625,0.0
1694738999.1929052,-108.88671875,-59.5703125,-53.7109375,-119.62890625,0.0
1694738999.1968074,-102.5390625,-59.5703125,-57.12890625,-110.3515625,0.0
1694738999.2007093,-108.88671875,-57.12890625,-62.98828125,-103.515625,0.0
1694738999.2046115,-105.46875,-62.5,-57.12890625,-96.19140625,0.0
1694738999.2085137,-82.51953125,-65.4296875,-56.15234375,-79.58984375,0.0
1694738999.212416,-86.9140625,-71.77734375,-66.40625,-69.3359375,0.0
1694738999.2163582,-77.1484375,-69.3359375,-67.3828125,-75.1953125,0.0
1694738999.2202604,-50.78125,-61.5234375,-62.01171875,-63.4765625,0.0
1694738999.2241623,-48.33984375,-68.84765625,-62.01171875,-41.50390625,0.0
1694738999.2280645,-43.9453125,-69.82421875,-63.4765625,-32.2265625,0.0
1694738999.2319667,-39.0625,-65.4296875,-64.453125,-35.15625,0.0
1694738999.235869,-33.203125,-67.3828125,-63.4765625,-37.109375,0.0
1694738999.2397711,-17.578125,-66.40625,-63.4765625,-31.25,0.0
1694738999.243673,-14.6484375,-60.05859375,-60.546875,-11.71875,0.0
1694738999.2475753,-17.578125,-59.5703125,-54.19921875,-4.8828125,0.0
1694738999.2514775,-12.20703125,-64.94140625,-56.640625,-4.39453125,0.0
1694738999.2553797,-18.06640625,-69.82421875,-59.08203125,0.9765625,0.0
1694738999.2592816,-17.08984375,-70.3125,-57.6171875,-1.953125,0.0
1694738999.263218,0.0,-59.08203125,-55.6640625,-0.48828125,0.0
1694738999.2671201,5.859375,-62.98828125,-51.7578125,1.46484375,0.0
1694738999.2710223,8.7890625,-69.3359375,-53.7109375,0.48828125,0.0
1694738999.2749245,10.25390625,-56.15234375,-49.31640625,13.671875,0.0
1694738999.2788267,8.30078125,-56.640625,-42.96875,16.11328125,0.0
1694738999.2827287,23.4375,-60.546875,-41.9921875,11.23046875,0.0
1694738999.2866309,35.64453125,-56.640625,-45.8984375,20.5078125,0.0
1694738999.290533,28.80859375,-58.59375,-43.45703125,25.87890625,0.0
1694738999.2944353,20.99609375,-51.26953125,-40.52734375,21.484375,0.0
1694738999.2983375,21.484375,-46.875,-48.33984375,18.5546875,0.0
1694738999.3022394,17.08984375,-51.7578125,-49.31640625,15.625,0.0
1694738999.3061416,21.484375,-48.828125,-43.9453125,16.6015625,0.0
1694738999.310072,31.25,-40.0390625,-39.0625,20.01953125,0.0
1694738999.3139741,31.73828125,-49.31640625,-36.62109375,21.484375,0.0
1694738999.3178763,22.4609375,-54.6875,-40.52734375,26.85546875,0.0
1694738999.3217783,11.71875,-43.45703125,-38.57421875,22.4609375,0.0
1694738999.3256805,9.765625,-46.38671875,-32.2265625,14.6484375,0.0
1694738999.3295827,17.578125,-50.29296875,-35.15625,18.5546875,0.0
1694738999.333485,22.4609375,-45.8984375,-36.62109375,31.25,0.0
1694738999.337387,11.71875,-46.875,-34.66796875,25.390625,0.0
1694738999.341289,14.16015625,-43.9453125,-30.76171875,16.6015625,0.0
1694738999.3451912,21.484375,-38.57421875,-34.1796875,20.5078125,0.0
1694738999.3490934,18.5546875,-41.9921875,-33.203125,23.4375,0.0
1694738999.3529956,16.6015625,-43.45703125,-29.78515625,19.53125,0.0
1694738999.3569531,16.11328125,-39.55078125,-28.80859375,6.8359375,0.0
1694738999.360855,13.671875,-42.96875,-30.76171875,10.7421875,0.0
1694738999.3647573,14.6484375,-51.7578125,-39.55078125,20.99609375,0.0
1694738999.3686595,21.97265625,-48.828125,-37.109375,26.3671875,0.0
1694738999.3725617,30.2734375,-40.0390625,-30.76171875,26.3671875,0.0
1694738999.376464,30.76171875,-38.57421875,-36.1328125,20.01953125,0.0
1694738999.3803658,14.16015625,-39.0625,-38.57421875,22.94921875,0.0
1694738999.384268,6.8359375,-33.69140625,-33.203125,21.97265625,0.0
1694738999.3881702,0.9765625,-32.71484375,-33.69140625,9.27734375,0.0
1694738999.3920724,-5.37109375,-40.0390625,-30.2734375,6.34765625,0.0
1694738999.3959746,9.765625,-38.0859375,-32.71484375,12.20703125,0.0
1694738999.3998766,12.6953125,-31.25,-38.0859375,20.5078125,0.0
1694738999.4038367,7.8125,-33.69140625,-28.80859375,20.99609375,0.0
1694738999.407739,0.0,-42.96875,-36.62109375,9.27734375,0.0
1694738999.4116411,8.30078125,-40.0390625,-41.015625,12.6953125,0.0
1694738999.4155433,5.37109375,-45.8984375,-31.25,12.6953125,0.0
1694738999.4194453,-14.6484375,-59.5703125,-31.73828125,-7.8125,0.0
1694738999.4233475,-22.4609375,-62.98828125,-32.2265625,-10.25390625,0.0
1694738999.4272497,-21.97265625,-53.22265625,-31.25,-13.18359375,0.0
1694738999.4311519,-11.71875,-47.36328125,-34.66796875,-11.23046875,0.0
1694738999.435054,-8.30078125,-58.10546875,-38.57421875,-6.34765625,0.0
1694738999.4389563,-7.32421875,-70.3125,-34.1796875,0.0,0.0
1694738999.4428582,-4.8828125,-63.4765625,-31.73828125,-3.90625,0.0
1694738999.4467604,-1.46484375,-51.7578125,-36.62109375,-3.90625,0.0
1694738999.450714,5.859375,-55.17578125,-38.57421875,2.9296875,0.0
1694738999.4546163,2.44140625,-55.17578125,-36.1328125,-6.8359375,0.0
1694738999.4585185,-10.25390625,-51.7578125,-35.15625,-0.9765625,0.0
1694738999.4624205,-15.625,-56.640625,-38.0859375,7.8125,0.0
1694738999.4663227,-20.01953125,-61.03515625,-38.57421875,-5.859375,0.0
1694738999.4702249,-2.44140625,-63.96484375,-43.45703125,2.44140625,0.0
1694738999.474127,4.39453125,-66.89453125,-46.38671875,-0.9765625,0.0
1694738999.4780293,-0.9765625,-65.91796875,-45.41015625,-10.7421875,0.0
1694738999.4819314,-5.859375,-75.68359375,-40.0390625,-1.953125,0.0
1694738999.4858334,-10.25390625,-73.2421875,-28.3203125,-1.953125,0.0
1694738999.4897356,-11.23046875,-61.5234375,-32.2265625,-9.765625,0.0
1694738999.4936378,-12.20703125,-62.5,-36.62109375,-13.671875,0.0
1694738999.497585,-6.34765625,-69.3359375,-38.57421875,-17.578125,0.0
1694738999.5014873,-10.25390625,-74.70703125,-44.43359375,-23.4375,0.0
1694738999.5053895,-12.6953125,-69.82421875,-50.29296875,-19.04296875,0.0
1694738999.5092916,-10.7421875,-63.96484375,-50.29296875,-10.25390625,0.0
1694738999.5131936,-6.8359375,-63.96484375,-39.0625,-13.18359375,0.0
1694738999.5170958,-5.37109375,-62.98828125,-33.203125,-10.7421875,0.0
1694738999.520998,-11.71875,-65.4296875,-34.66796875,-2.9296875,0.0
1694738999.5249002,-12.6953125,-68.84765625,-36.62109375,-14.6484375,0.0
1694738999.5288024,-5.37109375,-65.91796875,-37.109375,-7.32421875,0.0
1694738999.5327046,-11.23046875,-53.7109375,-36.1328125,-2.9296875,0.0
1694738999.5366066,-10.25390625,-53.22265625,-32.71484375,-4.39453125,0.0
1694738999.5405087,-8.7890625,-58.59375,-33.69140625,-8.7890625,0.0
1694738999.5444508,-9.27734375,-51.7578125,-33.69140625,-2.9296875,0.0
1694738999.548353,-5.37109375,-45.41015625,-33.203125,-2.44140625,0.0
1694738999.552255,4.39453125,-47.36328125,-36.1328125,-7.8125,0.0
1694738999.556157,3.41796875,-52.24609375,-39.0625,-4.39453125,0.0
1694738999.5600593,-1.46484375,-43.9453125,-33.69140625,-1.46484375,0.0
1694738999.5639615,-7.8125,-41.9921875,-33.69140625,-0.9765625,0.0
1694738999.5678637,-7.32421875,-48.33984375,-39.55078125,6.34765625,0.0
1694738999.571766,-11.23046875,-56.640625,-41.015625,-0.48828125,0.0
1694738999.575668,-11.71875,-49.31640625,-36.1328125,-8.7890625,0.0
1694738999.57957,-10.7421875,-43.9453125,-33.69140625,-1.953125,0.0
1694738999.5834723,-15.625,-61.03515625,-39.0625,-5.859375,0.0
1694738999.5873744,-12.20703125,-66.89453125,-46.38671875,-5.37109375,0.0
1694738999.5913186,-0.48828125,-53.22265625,-45.8984375,-14.6484375,0.0
1694738999.5952208,-9.27734375,-51.26953125,-52.734375,-28.80859375,0.0
1694738999.599123,-10.7421875,-51.7578125,-57.12890625,-19.04296875,0.0
1694738999.6030252,-14.6484375,-44.921875,-49.8046875,-1.953125,0.0
1694738999.6069274,-15.13671875,-49.8046875,-49.8046875,0.48828125,0.0
1694738999.6108294,-8.30078125,-61.03515625,-53.7109375,-7.8125,0.0
1694738999.6147316,-7.8125,-54.6875,-52.24609375,-19.04296875,0.0
1694738999.6186337,-5.859375,-52.24609375,-47.36328125,-17.08984375,0.0
1694738999.622536,-2.9296875,-42.48046875,-46.875,-22.4609375,0.0
1694738999.6264381,-4.8828125,-46.38671875,-46.875,-23.4375,0.0
1694738999.6303403,-11.23046875,-57.6171875,-47.36328125,-16.6015625,0.0
1694738999.6342425,-7.32421875,-49.31640625,-45.41015625,-12.20703125,0.0
1694738999.6381805,-10.7421875,-42.96875,-40.52734375,-15.13671875,0.0
1694738999.6420827,-24.90234375,-49.8046875,-50.29296875,-20.5078125,0.0
1694738999.645985,-20.01953125,-52.734375,-50.78125,-15.13671875,0.0
1694738999.649887,-6.8359375,-49.8046875,-42.96875,-8.30078125,0.0
1694738999.6537893,-13.671875,-42.48046875,-44.43359375,-13.18359375,0.0
1694738999.6576915,-19.53125,-38.57421875,-46.875,-20.01953125,0.0
1694738999.6615937,-13.671875,-39.55078125,-44.921875,-18.06640625,0.0
1694738999.6654956,-14.16015625,-46.875,-39.55078125,-11.23046875,0.0
1694738999.6693978,-12.6953125,-35.15625,-40.52734375,-4.8828125,0.0
1694738999.6733,-4.39453125,-32.71484375,-44.921875,0.9765625,0.0
1694738999.6772022,-5.37109375,-53.7109375,-40.0390625,-5.859375,0.0
1694738999.6811044,-11.23046875,-58.10546875,-37.109375,-12.6953125,0.0
1694738999.6850367,-6.8359375,-47.36328125,-37.109375,-1.46484375,0.0
1694738999.6889389,-5.859375,-47.8515625,-39.55078125,-6.8359375,0.0
1694738999.692841,-11.23046875,-59.08203125,-41.015625,-13.671875,0.0
1694738999.6967432,-15.13671875,-62.01171875,-39.55078125,-12.20703125,0.0
1694738999.7006454,-11.71875,-57.12890625,-38.0859375,-12.20703125,0.0
1694738999.7045474,-20.99609375,-61.03515625,-36.62109375,-12.20703125,0.0
1694738999.7084496,-29.78515625,-68.359375,-37.109375,-17.578125,0.0
1694738999.7123518,-26.3671875,-69.82421875,-38.0859375,-13.671875,0.0
1694738999.716254,-20.99609375,-57.6171875,-41.015625,-11.23046875,0.0
1694738999.7201562,-11.23046875,-45.41015625,-41.9921875,-27.34375,0.0
1694738999.7240584,-12.20703125,-57.6171875,-42.96875,-22.4609375,0.0
1694738999.7279606,-13.671875,-53.22265625,-39.55078125,-13.671875,0.0
1694738999.7319193,-9.765625,-47.8515625,-34.66796875,-20.5078125,0.0
1694738999.7358215,-20.5078125,-61.03515625,-37.109375,-22.4609375,0.0
1694738999.7397237,-26.3671875,-63.4765625,-36.62109375,-14.16015625,0.0
1694738999.7436259,-22.4609375,-58.59375,-35.15625,-17.08984375,0.0
1694738999.747528,-14.6484375,-59.08203125,-40.0390625,-21.484375,0.0
1694738999.7514303,-13.18359375,-68.359375,-49.31640625,-14.6484375,0.0
1694738999.7553322,-20.99609375,-75.68359375,-49.8046875,-24.4140625,0.0
1694738999.7592344,-22.4609375,-65.4296875,-51.7578125,-24.90234375,0.0
1694738999.7631366,-19.04296875,-59.5703125,-53.7109375,-2.9296875,0.0
1694738999.7670388,-10.25390625,-65.4296875,-55.6640625,0.48828125,0.0
1694738999.770941,-8.30078125,-57.12890625,-60.546875,-10.7421875,0.0
1694738999.7748432,-12.20703125,-51.26953125,-59.5703125,-10.25390625,0.0
1694738999.7787964,-10.7421875,-49.8046875,-57.12890625,-7.32421875,0.0
1694738999.7826986,-24.90234375,-62.5,-59.08203125,-6.34765625,0.0
1694738999.7866008,-29.296875,-58.59375,-60.546875,-3.41796875,0.0
1694738999.790503,-9.27734375,-43.9453125,-58.59375,-9.765625,0.0
1694738999.7944052,-5.859375,-45.41015625,-58.59375,-20.01953125,0.0
1694738999.7983074,-10.25390625,-54.19921875,-56.640625,-16.6015625,0.0
1694738999.8022096,-9.765625,-53.7109375,-51.7578125,-15.13671875,0.0
1694738999.8061118,-10.7421875,-40.0390625,-54.19921875,-28.80859375,0.0
1694738999.810014,-12.6953125,-42.96875,-52.734375,-19.53125,0.0
1694738999.8139162,-10.7421875,-45.8984375,-49.31640625,-2.9296875,0.0
1694738999.8178182,-4.39453125,-28.3203125,-49.8046875,-14.16015625,0.0
1694738999.8217204,1.46484375,-30.2734375,-50.29296875,-15.13671875,0.0
1694738999.825676,-8.30078125,-42.96875,-55.17578125,-10.7421875,0.0
1694738999.8295782,-14.6484375,-42.48046875,-51.7578125,-9.27734375,0.0
1694738999.8334804,-20.01953125,-41.015625,-48.33984375,-5.37109375,0.0
1694738999.8373826,-19.04296875,-40.52734375,-50.78125,-5.859375,0.0
1694738999.8412848,-14.16015625,-48.828125,-46.875,-7.8125,0.0
1694738999.845187,-7.32421875,-49.31640625,-51.7578125,-11.71875,0.0
1694738999.8490891,-6.34765625,-34.66796875,-52.24609375,-10.7421875,0.0
1694738999.8529913,-8.7890625,-32.2265625,-47.36328125,-14.16015625,0.0
1694738999.8568935,3.90625,-41.9921875,-49.8046875,-7.8125,0.0
1694738999.8607957,-2.9296875,-41.9921875,-45.8984375,-13.671875,0.0
1694738999.864698,-15.625,-35.64453125,-46.38671875,-22.4609375,0.0
1694738999.8686001,-19.04296875,-41.9921875,-47.8515625,-18.06640625,0.0
1694738999.8725493,-7.8125,-43.9453125,-45.41015625,-14.6484375,0.0
1694738999.8764515,-7.32421875,-33.69140625,-47.36328125,-24.90234375,0.0
1694738999.8803537,-12.6953125,-31.73828125,-51.26953125,-26.3671875,0.0
1694738999.884256,-8.30078125,-41.015625,-45.41015625,-12.20703125,0.0
1694738999.888158,-9.765625,-38.0859375,-42.48046875,-9.765625,0.0
1694738999.8920603,-15.625,-32.71484375,-49.8046875,-20.01953125,0.0
1694738999.8959625,-12.6953125,-34.1796875,-53.22265625,-25.390625,0.0
1694738999.8998647,-20.99609375,-40.0390625,-50.29296875,-25.87890625,0.0
1694738999.9037666,-29.296875,-43.9453125,-46.875,-25.390625,0.0
1694738999.9076688,-17.08984375,-37.109375,-48.33984375,-22.94921875,0.0
1694738999.911571,-3.90625,-30.76171875,-53.7109375,-16.6015625,0.0
1694738999.9154732,-1.46484375,-32.71484375,-52.24609375,-13.671875,0.0
1694738999.9194252,-1.953125,-39.0625,-50.29296875,-15.625,0.0
1694738999.9233274,-10.7421875,-29.296875,-51.26953125,-28.3203125,0.0
1694738999.9272296,-24.90234375,-24.90234375,-44.921875,-34.1796875,0.0
1694738999.9311318,-15.625,-29.296875,-44.43359375,-27.34375,0.0
1694738999.935034,-8.30078125,-34.1796875,-47.8515625,-24.90234375,0.0
1694738999.9389362,-14.16015625,-39.0625,-45.8984375,-24.90234375,0.0
1694738999.9428384,-14.16015625,-40.0390625,-49.31640625,-23.4375,0.0
1694738999.9467406,-16.11328125,-43.9453125,-52.24609375,-23.4375,0.0
1694738999.9506428,-18.06640625,-39.0625,-43.9453125,-24.90234375,0.0
1694738999.954545,-18.06640625,-30.2734375,-54.6875,-28.80859375,0.0
1694738999.9584472,-11.71875,-33.69140625,-67.87109375,-27.83203125,0.0
1694738999.9623494,-3.90625,-33.203125,-60.546875,-20.99609375,0.0
1694738999.9662952,-19.53125,-34.1796875,-49.8046875,-20.5078125,0.0
1694738999.9701974,-36.1328125,-40.52734375,-51.26953125,-42.48046875,0.0
1694738999.9740996,-27.34375,-40.0390625,-48.33984375,-41.9921875,0.0
1694738999.9780018,-22.4609375,-41.015625,-41.015625,-30.2734375,0.0
1694738999.981904,-40.0390625,-43.45703125,-41.9921875,-33.203125,0.0
1694738999.9858062,-39.55078125,-42.96875,-39.0625,-30.76171875,0.0
1694738999.9897084,-36.1328125,-49.8046875,-29.78515625,-38.57421875,0.0
1694738999.9936106,-49.8046875,-59.08203125,-24.4140625,-47.8515625,0.0
1694738999.9975128,-53.7109375,-56.15234375,-26.3671875,-41.50390625,0.0
1694739000.001415,-58.10546875,-56.15234375,-31.73828125,-33.69140625,0.0
1694739000.0053172,-50.29296875,-68.84765625,-31.25,-29.296875,0.0
