time,TP9,AF7,AF8,TP10,Right AUX
1694470595.7453868,-27.34375,-36.62109375,-45.41015625,-33.203125,0.0
1694470595.74929,-43.45703125,-36.1328125,-44.43359375,-46.38671875,0.0
1694470595.7531934,-46.38671875,-36.62109375,-40.52734375,-42.96875,0.0
1694470595.7570965,-26.3671875,-29.78515625,-45.8984375,-27.83203125,0.0
1694470595.761,-22.94921875,-28.3203125,-40.52734375,-25.87890625,0.0
1694470595.764903,-17.08984375,-33.69140625,-36.1328125,-28.3203125,0.0
1694470595.7688065,-26.85546875,-35.15625,-40.52734375,-30.2734375,0.0
1694470595.7727096,-36.1328125,-37.59765625,-44.43359375,-20.01953125,0.0
1694470595.776613,-37.109375,-44.921875,-49.31640625,-18.5546875,0.0
1694470595.7805161,-41.015625,-41.50390625,-46.38671875,-34.1796875,0.0
1694470595.7844193,-26.85546875,-29.296875,-45.41015625,-36.1328125,0.0
1694470595.7883227,-9.27734375,-28.3203125,-46.875,-20.99609375,0.0
1694470595.7922487,-14.6484375,-36.1328125,-48.33984375,-17.08984375,0.0
1694470595.796152,-20.99609375,-39.0625,-54.19921875,-30.76171875,0.0
1694470595.8000553,-25.390625,-40.0390625,-48.828125,-34.66796875,0.0
1694470595.8039587,-27.34375,-45.41015625,-44.43359375,-14.6484375,0.0
1694470595.8078618,-25.390625,-42.96875,-45.8984375,-0.48828125,0.0
1694470595.8117652,-28.3203125,-36.1328125,-47.8515625,-23.4375,0.0
1694470595.8156683,-43.9453125,-39.55078125,-50.29296875,-34.66796875,0.0
1694470595.8195717,-45.8984375,-39.55078125,-38.57421875,-17.578125,0.0
1694470595.823475,-34.1796875,-32.71484375,-38.0859375,-19.53125,0.0
1694470595.8273783,-39.55078125,-34.1796875,-46.38671875,-23.92578125,0.0
1694470595.8312814,-34.1796875,-36.62109375,-45.8984375,-32.71484375,0.0
1694470595.8351846,-23.92578125,-33.69140625,-47.8515625,-37.59765625,0.0
1694470595.8391128,-16.11328125,-35.64453125,-45.41015625,-13.671875,0.0
1694470595.8430161,-24.90234375,-39.0625,-47.8515625,-5.37109375,0.0
1694470595.8469193,-29.296875,-39.0625,-49.8046875,-19.53125,0.0
1694470595.8508227,-22.94921875,-33.69140625,-49.31640625,-42.96875,0.0
1694470595.8547258,-27.34375,-31.25,-46.875,-22.94921875,0.0
1694470595.8586292,-30.2734375,-31.73828125,-48.828125,-13.671875,0.0
1694470595.8625324,-32.71484375,-27.34375,-45.8984375,-39.55078125,0.0
1694470595.8664358,-52.734375,-24.90234375,-35.64453125,-46.875,0.0
1694470595.870339,-47.36328125,-30.2734375,-42.48046875,-32.71484375,0.0
1694470595.8742423,-21.97265625,-33.203125,-51.26953125,-15.625,0.0
1694470595.8781455,-37.109375,-34.66796875,-49.31640625,-24.90234375,0.0
1694470595.8820486,-47.36328125,-36.1328125,-44.43359375,-49.31640625,0.0
1694470595.8860002,-56.15234375,-38.57421875,-47.8515625,-49.8046875,0.0
1694470595.8899033,-54.6875,-41.015625,-49.8046875,-23.92578125,0.0
1694470595.8938067,-11.71875,-41.9921875,-35.15625,-13.671875,0.0
1694470595.8977098,-2.44140625,-27.34375,-31.25,-30.2734375,0.0
1694470595.9016132,-47.8515625,-18.5546875,-41.50390625,-62.5,0.0
1694470595.9055164,-76.171875,-27.34375,-42.96875,-83.49609375,0.0
1694470595.9094198,-62.5,-28.80859375,-42.96875,-68.359375,0.0
1694470595.913323,-71.2890625,-20.01953125,-41.015625,-71.2890625,0.0
1694470595.9172263,-98.6328125,-24.90234375,-48.33984375,-112.79296875,0.0
1694470595.9211295,-103.515625,-34.1796875,-54.6875,-91.796875,0.0
1694470595.9250329,-105.46875,-31.73828125,-55.17578125,-90.33203125,0.0
1694470595.928936,-101.5625,-25.390625,-58.10546875,-129.39453125,0.0
1694470595.9328775,-100.5859375,-19.04296875,-56.640625,-112.79296875,0.0
1694470595.936781,-91.30859375,-24.90234375,-49.8046875,-93.75,0.0
1694470595.940684,-98.6328125,-35.15625,-43.45703125,-89.35546875,0.0
1694470595.9445875,-99.12109375,-35.15625,-45.8984375,-85.44921875,0.0
1694470595.9484906,-81.0546875,-37.109375,-50.29296875,-100.5859375,0.0
1694470595.952394,-72.265625,-39.0625,-47.8515625,-85.9375,0.0
1694470595.9562972,-54.19921875,-31.73828125,-49.8046875,-51.26953125,0.0
1694470595.9602005,-55.17578125,-31.25,-45.8984375,-60.05859375,0.0
1694470595.9641037,-82.51953125,-40.0390625,-41.9921875,-87.40234375,0.0
1694470595.968007,-74.21875,-41.50390625,-44.921875,-73.2421875,0.0
1694470595.9719102,-50.78125,-35.64453125,-40.0390625,-49.8046875,0.0
1694470595.9758136,-60.05859375,-27.34375,-42.48046875,-64.453125,0.0
1694470595.979751,-65.91796875,-26.3671875,-42.96875,-80.078125,0.0
1694470595.9836545,-69.3359375,-28.80859375,-35.64453125,-67.87109375,0.0
1694470595.9875576,-57.6171875,-24.90234375,-31.25,-50.78125,0.0
1694470595.9914608,-39.55078125,-24.4140625,-38.57421875,-41.50390625,0.0
1694470595.9953642,-51.7578125,-28.3203125,-45.41015625,-50.78125,0.0
1694470595.9992673,-52.734375,-28.3203125,-39.55078125,-55.6640625,0.0
1694470596.0031707,-46.875,-28.3203125,-33.203125,-51.7578125,0.0
1694470596.0070739,-44.921875,-29.78515625,-31.25,-43.9453125,0.0
1694470596.0109773,-49.8046875,-27.34375,-31.73828125,-42.96875,0.0
1694470596.0148804,-62.01171875,-23.92578125,-28.80859375,-55.6640625,0.0
1694470596.0187838,-57.6171875,-28.80859375,-28.80859375,-48.828125,0.0
1694470596.022687,-42.48046875,-34.1796875,-36.62109375,-39.55078125,0.0
1694470596.0266209,-40.0390625,-35.15625,-38.57421875,-37.59765625,0.0
1694470596.0305243,-41.9921875,-30.76171875,-39.0625,-41.50390625,0.0
1694470596.0344274,-47.36328125,-31.25,-44.43359375,-62.5,0.0
1694470596.0383308,-45.8984375,-36.62109375,-43.9453125,-49.31640625,0.0
1694470596.042234,-41.9921875,-34.66796875,-41.50390625,-31.25,0.0
1694470596.0461373,-43.45703125,-36.62109375,-43.45703125,-43.45703125,0.0
1694470596.0500405,-34.66796875,-40.52734375,-42.48046875,-53.7109375,0.0
1694470596.0539439,-18.5546875,-37.59765625,-38.57421875,-37.59765625,0.0
1694470596.057847,-26.3671875,-36.62109375,-40.0390625,-27.83203125,0.0
1694470596.0617504,-43.9453125,-35.15625,-34.66796875,-31.25,0.0
1694470596.0656536,-46.875,-36.62109375,-26.3671875,-44.43359375,0.0
1694470596.069557,-32.2265625,-39.0625,-35.64453125,-48.828125,0.0
1694470596.0734925,-24.90234375,-34.66796875,-43.9453125,-33.69140625,0.0
1694470596.077396,-32.71484375,-33.69140625,-38.57421875,-40.52734375,0.0
1694470596.081299,-33.203125,-36.1328125,-34.66796875,-45.8984375,0.0
1694470596.0852025,-40.0390625,-32.71484375,-34.66796875,-53.22265625,0.0
1694470596.0891056,-38.0859375,-29.296875,-28.3203125,-44.921875,0.0
1694470596.093009,-23.92578125,-30.2734375,-27.83203125,-34.1796875,0.0
1694470596.0969121,-24.4140625,-35.64453125,-31.73828125,-44.921875,0.0
1694470596.1008155,-26.85546875,-37.109375,-34.1796875,-46.875,0.0
1694470596.1047187,-14.6484375,-36.1328125,-33.203125,-33.69140625,0.0
1694470596.108622,-7.8125,-33.203125,-29.78515625,-20.5078125,0.0
1694470596.1125252,-24.4140625,-33.69140625,-37.109375,-36.62109375,0.0
1694470596.1164286,-55.6640625,-37.109375,-40.52734375,-48.828125,0.0
1694470596.120382,-57.12890625,-36.62109375,-32.2265625,-33.203125,0.0
1694470596.1242852,-31.73828125,-31.25,-25.87890625,-25.87890625,0.0
1694470596.1281886,-29.78515625,-33.203125,-25.87890625,-22.94921875,0.0
1694470596.1320918,-31.73828125,-32.2265625,-30.76171875,-27.34375,0.0
1694470596.1359951,-16.11328125,-26.3671875,-28.80859375,-30.76171875,0.0
1694470596.1398983,-1.953125,-26.3671875,-26.3671875,-14.16015625,0.0
1694470596.1438017,-16.6015625,-33.69140625,-30.2734375,-13.18359375,0.0
1694470596.1477048,-32.2265625,-33.203125,-29.78515625,-28.80859375,0.0
1694470596.1516082,-23.92578125,-28.3203125,-34.1796875,-18.5546875,0.0
1694470596.1555114,0.0,-26.85546875,-38.0859375,6.8359375,0.0
1694470596.1594148,-20.99609375,-26.85546875,-27.83203125,-25.87890625,0.0
1694470596.163318,-63.4765625,-31.25,-22.94921875,-78.125,0.0
1694470596.1672454,-71.77734375,-37.109375,-25.390625,-80.56640625,0.0
1694470596.1711488,-62.5,-39.55078125,-22.4609375,-63.96484375,0.0
1694470596.175052,-65.91796875,-35.15625,-19.53125,-67.3828125,0.0
1694470596.1789553,-70.80078125,-34.1796875,-23.92578125,-89.35546875,0.0
1694470596.1828587,-79.1015625,-38.0859375,-31.25,-99.12109375,0.0
1694470596.1867619,-97.16796875,-43.45703125,-30.76171875,-83.984375,0.0
1694470596.1906652,-83.984375,-43.9453125,-28.3203125,-69.82421875,0.0
1694470596.1945684,-68.359375,-43.9453125,-33.203125,-74.21875,0.0
1694470596.1984718,-68.359375,-41.015625,-30.2734375,-77.1484375,0.0
1694470596.202375,-69.3359375,-33.69140625,-22.4609375,-62.01171875,0.0
1694470596.2062783,-55.6640625,-33.69140625,-23.4375,-44.43359375,0.0
1694470596.2101815,-42.96875,-34.66796875,-31.73828125,-45.8984375,0.0
1694470596.2141047,-37.109375,-40.0390625,-37.109375,-59.5703125,0.0
1694470596.2180078,-49.31640625,-42.48046875,-40.52734375,-66.40625,0.0
1694470596.2219112,-49.8046875,-36.1328125,-41.9921875,-49.31640625,0.0
1694470596.2258143,-44.43359375,-35.64453125,-38.0859375,-39.55078125,0.0
1694470596.2297177,-46.38671875,-36.62109375,-37.59765625,-55.17578125,0.0
1694470596.233621,-41.50390625,-38.57421875,-39.55078125,-57.6171875,0.0
1694470596.2375243,-41.015625,-38.0859375,-36.62109375,-38.0859375,0.0
1694470596.2414274,-41.9921875,-34.66796875,-31.25,-34.1796875,0.0
1694470596.2453308,-42.48046875,-37.59765625,-38.0859375,-39.55078125,0.0
1694470596.249234,-49.31640625,-40.0390625,-40.0390625,-43.9453125,0.0
1694470596.2531374,-57.12890625,-40.0390625,-36.1328125,-45.41015625,0.0
1694470596.2570405,-40.52734375,-35.64453125,-35.64453125,-32.71484375,0.0
1694470596.2609873,-30.2734375,-36.1328125,-37.109375,-45.8984375,0.0
1694470596.2648907,-40.0390625,-36.62109375,-36.62109375,-51.7578125,0.0
1694470596.2687938,-37.59765625,-33.69140625,-35.64453125,-38.57421875,0.0
1694470596.2726972,-21.484375,-37.59765625,-30.76171875,-28.3203125,0.0
1694470596.2766004,-20.5078125,-39.55078125,-32.2265625,-34.66796875,0.0
1694470596.2805037,-43.45703125,-42.96875,-43.45703125,-46.875,0.0
1694470596.284407,-61.03515625,-49.31640625,-42.96875,-41.015625,0.0
1694470596.2883103,-42.96875,-43.45703125,-35.64453125,-21.97265625,0.0
1694470596.2922137,-27.34375,-37.59765625,-39.0625,-22.94921875,0.0
1694470596.2961168,-28.80859375,-33.203125,-43.45703125,-33.203125,0.0
1694470596.3000202,-33.203125,-31.73828125,-38.0859375,-34.1796875,0.0
1694470596.3039234,-32.71484375,-31.73828125,-29.296875,-29.78515625,0.0
1694470596.307883,-35.64453125,-29.78515625,-28.3203125,-21.97265625,0.0
1694470596.3117862,-47.8515625,-37.109375,-33.203125,-24.90234375,0.0
1694470596.3156896,-52.24609375,-38.57421875,-36.62109375,-38.57421875,0.0
1694470596.319593,-32.71484375,-41.015625,-32.2265625,-30.2734375,0.0
1694470596.323496,-16.11328125,-39.0625,-27.34375,-7.32421875,0.0
1694470596.3273995,-17.578125,-36.1328125,-31.25,-16.11328125,0.0
1694470596.3313026,-13.671875,-36.1328125,-30.2734375,-27.34375,0.0
1694470596.335206,-41.50390625,-30.76171875,-25.390625,-20.01953125,0.0
1694470596.3391092,-39.55078125,-29.78515625,-30.2734375,-18.5546875,0.0
1694470596.3430126,-11.71875,-33.69140625,-34.1796875,-25.390625,0.0
1694470596.3469157,-18.5546875,-29.78515625,-30.2734375,-33.203125,0.0
1694470596.350819,-33.69140625,-27.34375,-28.3203125,-38.57421875,0.0
1694470596.3547578,-15.625,-23.92578125,-28.3203125,-26.3671875,0.0
1694470596.3586612,-9.765625,-22.4609375,-27.34375,-18.5546875,0.0
1694470596.3625643,-25.87890625,-29.78515625,-32.71484375,-33.203125,0.0
1694470596.3664677,-34.66796875,-34.1796875,-38.57421875,-43.45703125,0.0
1694470596.3703709,-44.43359375,-34.1796875,-37.109375,-43.9453125,0.0
1694470596.3742743,-39.0625,-28.3203125,-33.203125,-32.2265625,0.0
1694470596.3781776,-39.55078125,-31.25,-34.66796875,-34.1796875,0.0
1694470596.3820808,-41.50390625,-30.2734375,-31.73828125,-42.48046875,0.0
1694470596.3859842,-36.1328125,-28.80859375,-32.2265625,-31.25,0.0
1694470596.3898873,-29.296875,-29.296875,-31.73828125,-20.01953125,0.0
1694470596.3937907,-32.71484375,-27.83203125,-26.3671875,-26.85546875,0.0
1694470596.3976939,-27.34375,-30.2734375,-32.2265625,-36.62109375,0.0
1694470596.4016287,-29.78515625,-34.1796875,-33.69140625,-33.69140625,0.0
1694470596.4055321,-32.2265625,-35.15625,-31.25,-27.83203125,0.0
1694470596.4094355,-28.80859375,-34.1796875,-33.69140625,-24.90234375,0.0
1694470596.4133387,-33.203125,-36.62109375,-34.1796875,-32.71484375,0.0
1694470596.417242,-55.17578125,-34.1796875,-32.71484375,-39.0625,0.0
1694470596.4211452,-46.38671875,-36.62109375,-37.59765625,-34.1796875,0.0
1694470596.4250486,-28.3203125,-38.0859375,-37.109375,-34.1796875,0.0
1694470596.4289517,-22.4609375,-38.57421875,-34.1796875,-38.0859375,0.0
1694470596.4328551,-25.87890625,-37.109375,-34.1796875,-38.0859375,0.0
1694470596.4367583,-38.57421875,-31.73828125,-25.87890625,-32.71484375,0.0
1694470596.4406617,-34.1796875,-34.66796875,-27.83203125,-24.90234375,0.0
1694470596.4445648,-23.4375,-37.59765625,-36.1328125,-30.2734375,0.0
1694470596.448496,-26.85546875,-35.15625,-38.57421875,-44.921875,0.0
1694470596.4523993,-41.9921875,-33.203125,-26.3671875,-49.31640625,0.0
1694470596.4563026,-36.62109375,-31.73828125,-18.06640625,-27.83203125,0.0
1694470596.4602058,-11.23046875,-31.25,-28.80859375,-26.3671875,0.0
1694470596.4641092,-23.92578125,-34.1796875,-32.2265625,-40.52734375,0.0
1694470596.4680126,-39.55078125,-29.78515625,-26.85546875,-47.36328125,0.0
1694470596.4719157,-17.578125,-29.296875,-26.85546875,-32.2265625,0.0
1694470596.475819,-22.4609375,-39.0625,-28.3203125,-15.13671875,0.0
1694470596.4797223,-25.390625,-39.0625,-27.34375,-22.94921875,0.0
1694470596.4836257,-44.921875,-34.1796875,-20.01953125,-21.484375,0.0
1694470596.4875288,-48.828125,-31.25,-21.484375,-10.25390625,0.0
1694470596.4914322,-26.85546875,-31.73828125,-30.2734375,-17.08984375,0.0
1694470596.4953644,-30.76171875,-33.203125,-32.2265625,-38.0859375,0.0
1694470596.4992678,-32.2265625,-34.1796875,-39.0625,-43.9453125,0.0
1694470596.503171,-19.04296875,-30.2734375,-41.9921875,-35.15625,0.0
1694470596.5070744,-16.6015625,-26.85546875,-36.1328125,-36.62109375,0.0
1694470596.5109775,-28.80859375,-33.203125,-36.1328125,-43.9453125,0.0
1694470596.514881,-16.6015625,-33.203125,-39.0625,-41.9921875,0.0
1694470596.5187843,-25.390625,-32.71484375,-35.64453125,-38.0859375,0.0
1694470596.5226874,-43.45703125,-28.3203125,-30.76171875,-25.87890625,0.0
1694470596.5265908,-47.8515625,-25.390625,-34.1796875,-22.94921875,0.0
1694470596.530494,-42.48046875,-25.87890625,-33.69140625,-39.0625,0.0
1694470596.5343974,-44.921875,-29.78515625,-32.71484375,-62.5,0.0
1694470596.5383005,-29.296875,-32.71484375,-29.78515625,-33.203125,0.0
1694470596.5422294,-18.06640625,-33.69140625,-29.78515625,-6.8359375,0.0
1694470596.5461326,-37.59765625,-39.0625,-36.1328125,-37.59765625,0.0
1694470596.550036,-32.2265625,-33.203125,-30.76171875,-46.875,0.0
1694470596.553939,-16.11328125,-28.80859375,-24.90234375,-28.80859375,0.0
1694470596.5578425,-28.3203125,-33.203125,-26.85546875,-18.5546875,0.0
1694470596.5617456,-23.4375,-29.296875,-31.73828125,-29.296875,0.0
1694470596.565649,-34.66796875,-33.69140625,-34.66796875,-48.828125,0.0
1694470596.5695524,-57.6171875,-39.0625,-31.25,-44.43359375,0.0
1694470596.5734556,-33.69140625,-34.1796875,-27.83203125,-20.99609375,0.0
1694470596.577359,-28.3203125,-38.57421875,-32.2265625,-14.6484375,0.0
1694470596.581262,-35.64453125,-38.57421875,-33.69140625,-34.1796875,0.0
1694470596.5851655,-44.921875,-38.0859375,-31.25,-40.0390625,0.0
1694470596.5890896,-43.9453125,-37.109375,-34.1796875,-36.62109375,0.0
1694470596.592993,-35.15625,-33.203125,-31.25,-24.4140625,0.0
1694470596.5968962,-38.57421875,-36.62109375,-26.3671875,-23.92578125,0.0
1694470596.6007996,-33.203125,-35.64453125,-26.85546875,-37.109375,0.0
1694470596.604703,-19.53125,-36.1328125,-27.83203125,-26.85546875,0.0
1694470596.608606,-20.01953125,-34.66796875,-31.25,-12.20703125,0.0
1694470596.6125095,-26.3671875,-35.15625,-38.57421875,-17.578125,0.0
1694470596.6164126,-37.109375,-33.203125,-42.48046875,-37.109375,0.0
1694470596.620316,-39.55078125,-35.64453125,-41.50390625,-31.73828125,0.0
1694470596.6242192,-30.2734375,-43.45703125,-48.828125,-19.53125,0.0
1694470596.6281226,-26.85546875,-41.015625,-44.921875,-23.92578125,0.0
1694470596.6320257,-37.59765625,-35.15625,-39.55078125,-41.015625,0.0
1694470596.635969,-51.26953125,-37.59765625,-46.38671875,-44.43359375,0.0
1694470596.639872,-39.55078125,-39.0625,-49.8046875,-31.25,0.0
1694470596.6437755,-30.76171875,-34.1796875,-47.36328125,-27.34375,0.0
1694470596.6476786,-42.48046875,-36.62109375,-46.875,-39.55078125,0.0
1694470596.651582,-34.66796875,-38.57421875,-47.36328125,-45.41015625,0.0
1694470596.6554852,-12.20703125,-40.52734375,-42.48046875,-16.6015625,0.0
1694470596.6593885,-34.66796875,-38.0859375,-39.55078125,-18.06640625,0.0
1694470596.663292,-47.8515625,-38.57421875,-42.96875,-29.296875,0.0
1694470596.667195,-29.78515625,-33.203125,-41.50390625,-23.4375,0.0
1694470596.6710985,-23.92578125,-30.76171875,-37.109375,-15.625,0.0
1694470596.6750016,-21.97265625,-31.73828125,-33.69140625,-19.04296875,0.0
1694470596.678905,-28.3203125,-32.71484375,-28.3203125,-25.390625,0.0
1694470596.682844,-39.55078125,-34.1796875,-27.83203125,-38.0859375,0.0
1694470596.6867473,-32.71484375,-36.1328125,-26.3671875,-34.66796875,0.0
1694470596.6906505,-26.85546875,-36.62109375,-20.01953125,-9.27734375,0.0
1694470596.6945539,-22.94921875,-35.15625,-23.4375,-18.06640625,0.0
1694470596.698457,-21.484375,-35.64453125,-29.296875,-31.73828125,0.0
1694470596.7023604,-46.875,-35.15625,-31.73828125,-41.015625,0.0
1694470596.7062635,-45.8984375,-30.2734375,-34.1796875,-33.203125,0.0
1694470596.710167,-20.99609375,-26.85546875,-32.71484375,-23.92578125,0.0
1694470596.7140703,-20.5078125,-31.73828125,-33.69140625,-37.109375,0.0
1694470596.7179735,-17.578125,-31.25,-29.78515625,-24.90234375,0.0
1694470596.7218769,-13.671875,-35.64453125,-18.06640625,-10.25390625,0.0
1694470596.72578,-25.390625,-40.0390625,-22.94921875,-20.5078125,0.0
1694470596.7297204,-22.94921875,-38.57421875,-27.34375,-28.3203125,0.0
1694470596.7336237,-18.5546875,-36.62109375,-31.73828125,-36.1328125,0.0
1694470596.737527,-8.30078125,-29.78515625,-40.52734375,-38.0859375,0.0
1694470596.7414303,-20.01953125,-30.2734375,-40.52734375,-23.92578125,0.0
1694470596.7453337,-43.45703125,-37.109375,-40.0390625,-27.34375,0.0
1694470596.7492368,-39.55078125,-38.0859375,-41.015625,-43.9453125,0.0
1694470596.7531402,-29.296875,-35.15625,-43.9453125,-38.0859375,0.0
1694470596.7570434,-5.37109375,-35.64453125,-37.59765625,-30.76171875,0.0
1694470596.7609468,1.46484375,-38.0859375,-30.76171875,-33.203125,0.0
1694470596.76485,-19.04296875,-32.71484375,-30.76171875,-40.0390625,0.0
1694470596.7687533,-53.7109375,-31.25,-36.62109375,-47.36328125,0.0
1694470596.7726567,-53.7109375,-36.62109375,-41.9921875,-31.25,0.0
1694470596.776593,-39.0625,-32.2265625,-37.59765625,-31.25,0.0
1694470596.7804964,-33.203125,-29.296875,-35.64453125,-43.9453125,0.0
1694470596.7843995,-23.92578125,-31.73828125,-38.0859375,-46.38671875,0.0
1694470596.788303,-15.13671875,-29.78515625,-39.0625,-36.1328125,0.0
1694470596.792206,-20.99609375,-32.2265625,-36.1328125,-34.66796875,0.0
1694470596.7961094,-36.1328125,-40.52734375,-37.59765625,-39.55078125,0.0
1694470596.8000126,-39.55078125,-41.015625,-38.57421875,-51.7578125,0.0
1694470596.803916,-31.25,-35.15625,-30.76171875,-40.52734375,0.0
1694470596.8078194,-30.76171875,-30.76171875,-31.73828125,-18.5546875,0.0
1694470596.8117225,-37.59765625,-30.76171875,-39.0625,-26.85546875,0.0
1694470596.815626,-45.8984375,-36.1328125,-41.50390625,-31.25,0.0
1694470596.819529,-36.62109375,-39.55078125,-35.64453125,-38.0859375,0.0
1694470596.8234613,-27.83203125,-40.0390625,-35.15625,-30.2734375,0.0
1694470596.8273644,-28.3203125,-40.0390625,-41.015625,-23.92578125,0.0
1694470596.8312678,-27.83203125,-37.59765625,-44.43359375,-36.62109375,0.0
1694470596.8351712,-47.36328125,-36.1328125,-37.59765625,-37.109375,0.0
1694470596.8390744,-45.41015625,-36.1328125,-36.62109375,-18.06640625,0.0
1694470596.8429778,-24.4140625,-39.0625,-41.50390625,-21.484375,0.0
1694470596.846881,-23.4375,-36.62109375,-38.0859375,-49.8046875,0.0
1694470596.8507843,-33.69140625,-39.55078125,-33.203125,-47.36328125,0.0
1694470596.8546877,-33.203125,-34.1796875,-34.1796875,-26.85546875,0.0
1694470596.8585908,-31.25,-26.85546875,-36.1328125,-23.92578125,0.0
1694470596.8624942,-35.15625,-31.73828125,-35.64453125,-25.87890625,0.0
1694470596.8663974,-28.80859375,-31.73828125,-39.55078125,-31.25,0.0
1694470596.8703482,-26.3671875,-32.2265625,-38.57421875,-29.296875,0.0
1694470596.8742516,-20.5078125,-39.55078125,-34.66796875,-27.34375,0.0
1694470596.8781548,-25.390625,-44.43359375,-39.55078125,-31.73828125,0.0
1694470596.8820581,-37.59765625,-46.38671875,-32.71484375,-40.52734375,0.0
1694470596.8859615,-38.57421875,-49.8046875,-28.3203125,-39.0625,0.0
1694470596.8898647,-49.8046875,-44.921875,-30.76171875,-18.5546875,0.0
1694470596.893768,-56.15234375,-35.15625,-29.78515625,-27.83203125,0.0
1694470596.8976712,-41.50390625,-38.57421875,-32.2265625,-44.921875,0.0
1694470596.9015746,-22.94921875,-35.15625,-27.34375,-43.45703125,0.0
1694470596.905478,-27.34375,-34.66796875,-25.390625,-31.25,0.0
1694470596.9093812,-25.390625,-40.0390625,-34.66796875,-28.3203125,0.0
1694470596.9132845,-23.92578125,-35.64453125,-33.69140625,-37.59765625,0.0
1694470596.9172149,-35.15625,-31.73828125,-28.3203125,-44.43359375,0.0
1694470596.9211183,-40.0390625,-35.64453125,-31.25,-31.25,0.0
1694470596.9250214,-45.41015625,-33.69140625,-32.2265625,-23.92578125,0.0
1694470596.9289248,-34.1796875,-33.203125,-29.78515625,-43.45703125,0.0
1694470596.9328282,-51.26953125,-33.69140625,-31.73828125,-57.12890625,0.0
1694470596.9367313,-63.4765625,-34.1796875,-29.296875,-45.41015625,0.0
1694470596.9406347,-45.8984375,-26.85546875,-28.3203125,-36.62109375,0.0
1694470596.9445379,-32.2265625,-10.25390625,-31.25,-41.50390625,0.0
1694470596.9484413,-38.57421875,-1.953125,-23.4375,-51.26953125,0.0
1694470596.9523444,-58.59375,-11.23046875,-22.94921875,-59.08203125,0.0
1694470596.9562478,-56.640625,-14.16015625,-20.01953125,-43.9453125,0.0
1694470596.9601512,-62.5,0.9765625,-26.3671875,-57.12890625,0.0
1694470596.964077,-76.171875,9.27734375,-30.2734375,-86.42578125,0.0
1694470596.9679804,-99.12109375,5.37109375,-20.99609375,-104.98046875,0.0
1694470596.9718838,-124.0234375,-0.9765625,-22.4609375,-125.9765625,0.0
1694470596.975787,-147.94921875,0.0,-31.73828125,-143.06640625,0.0
1694470596.9796903,-191.89453125,0.9765625,-28.3203125,-186.5234375,0.0
1694470596.9835935,-217.7734375,5.37109375,-16.6015625,-223.6328125,0.0
1694470596.9874969,-234.86328125,4.8828125,-7.32421875,-228.515625,0.0
1694470596.9914002,-249.51171875,9.765625,8.30078125,-240.234375,0.0
1694470596.9953034,-252.9296875,15.13671875,10.25390625,-269.53125,0.0
1694470596.9992068,-257.8125,14.6484375,4.39453125,-279.78515625,0.0
1694470597.00311,-250.9765625,15.625,3.41796875,-263.671875,0.0
1694470597.0070133,-239.2578125,15.13671875,2.44140625,-235.83984375,0.0
1694470597.010958,-232.421875,5.37109375,3.41796875,-226.5625,0.0
1694470597.0148613,-216.30859375,-0.9765625,-0.48828125,-224.609375,0.0
1694470597.0187645,-203.61328125,-1.953125,-4.8828125,-216.796875,0.0
1694470597.022668,-177.24609375,0.0,-2.44140625,-180.6640625,0.0
1694470597.026571,-163.0859375,-8.30078125,-5.37109375,-159.66796875,0.0
1694470597.0304744,-160.15625,-17.578125,-9.765625,-154.78515625,0.0
1694470597.0343778,-145.99609375,-18.5546875,-17.578125,-144.53125,0.0
1694470597.038281,-115.234375,-20.01953125,-23.4375,-121.58203125,0.0
1694470597.0421844,-103.515625,-25.390625,-27.83203125,-98.6328125,0.0
1694470597.0460875,-97.16796875,-34.66796875,-35.64453125,-97.16796875,0.0
1694470597.049991,-81.0546875,-37.109375,-33.203125,-93.75,0.0
1694470597.0538943,-61.03515625,-35.64453125,-33.203125,-74.70703125,0.0
1694470597.0578349,-40.52734375,-43.45703125,-36.62109375,-59.5703125,0.0
1694470597.0617383,-30.76171875,-47.36328125,-37.59765625,-52.734375,0.0
1694470597.0656414,-32.2265625,-44.921875,-37.109375,-44.43359375,0.0
1694470597.0695448,-28.3203125,-47.8515625,-39.0625,-35.64453125,0.0
1694470597.0734482,-6.34765625,-50.29296875,-44.43359375,-4.8828125,0.0
1694470597.0773513,9.27734375,-43.9453125,-45.8984375,3.90625,0.0
1694470597.0812547,20.99609375,-38.0859375,-44.921875,-6.8359375,0.0
1694470597.0851579,20.99609375,-41.9921875,-48.33984375,1.953125,0.0
1694470597.0890613,20.5078125,-43.45703125,-42.48046875,20.99609375,0.0
1694470597.0929646,9.27734375,-40.52734375,-33.69140625,32.71484375,0.0
1694470597.0968678,4.39453125,-38.57421875,-40.52734375,21.97265625,0.0
1694470597.1007712,23.4375,-40.0390625,-45.8984375,19.04296875,0.0
1694470597.1047068,33.203125,-46.875,-41.015625,42.96875,0.0
1694470597.1086102,25.87890625,-52.24609375,-39.55078125,46.875,0.0
1694470597.1125135,25.390625,-45.41015625,-43.9453125,21.97265625,0.0
1694470597.1164167,25.87890625,-44.43359375,-47.8515625,15.625,0.0
1694470597.12032,37.109375,-46.38671875,-50.29296875,33.203125,0.0
1694470597.1242235,39.55078125,-44.43359375,-53.7109375,40.0390625,0.0
1694470597.1281266,32.2265625,-43.45703125,-53.7109375,33.69140625,0.0
1694470597.13203,35.15625,-43.45703125,-45.41015625,30.2734375,0.0
1694470597.1359332,36.1328125,-44.921875,-41.9921875,29.78515625,0.0
1694470597.1398365,35.15625,-41.50390625,-41.015625,42.48046875,0.0
1694470597.14374,29.296875,-39.0625,-38.57421875,47.8515625,0.0
1694470597.147643,22.4609375,-42.48046875,-37.59765625,28.80859375,0.0
1694470597.1515865,17.578125,-43.9453125,-40.52734375,24.90234375,0.0
1694470597.15549,36.1328125,-41.015625,-47.36328125,41.9921875,0.0
1694470597.159393,44.43359375,-38.57421875,-47.8515625,44.921875,0.0
1694470597.1632965,28.80859375,-40.52734375,-49.8046875,32.2265625,0.0
1694470597.1671996,16.6015625,-43.9453125,-51.26953125,25.87890625,0.0
1694470597.171103,18.06640625,-44.43359375,-51.26953125,41.50390625,0.0
1694470597.1750064,29.78515625,-41.50390625,-51.26953125,41.9921875,0.0
1694470597.1789095,28.3203125,-45.8984375,-51.26953125,24.4140625,0.0
1694470597.182813,26.3671875,-51.7578125,-49.8046875,22.4609375,0.0
1694470597.186716,41.50390625,-41.50390625,-41.50390625,34.1796875,0.0
1694470597.1906195,32.2265625,-34.1796875,-41.9921875,50.78125,0.0
1694470597.1945229,18.06640625,-29.78515625,-44.921875,40.52734375,0.0
1694470597.198457,7.32421875,-32.2265625,-39.55078125,18.06640625,0.0
1694470597.2023604,0.9765625,-38.0859375,-36.1328125,22.94921875,0.0
1694470597.2062638,19.04296875,-40.52734375,-39.0625,36.1328125,0.0
1694470597.210167,23.92578125,-41.9921875,-42.96875,35.15625,0.0
1694470597.2140703,16.11328125,-39.0625,-40.52734375,24.90234375,0.0
1694470597.2179737,2.9296875,-37.109375,-40.0390625,10.25390625,0.0
1694470597.2218769,15.13671875,-38.57421875,-41.50390625,19.53125,0.0
1694470597.2257802,22.4609375,-41.50390625,-41.9921875,26.3671875,0.0
1694470597.2296834,8.30078125,-41.9921875,-44.43359375,15.625,0.0
1694470597.2335868,11.23046875,-39.55078125,-41.015625,5.859375,0.0
1694470597.2374902,16.6015625,-40.52734375,-42.96875,16.11328125,0.0
1694470597.2413933,21.484375,-42.96875,-47.8515625,19.04296875,0.0
1694470597.2453232,22.4609375,-38.0859375,-42.96875,12.6953125,0.0
1694470597.2492266,3.90625,-37.109375,-38.57421875,14.6484375,0.0
1694470597.2531297,-5.859375,-39.55078125,-36.1328125,13.18359375,0.0
1694470597.257033,4.39453125,-40.52734375,-27.34375,17.08984375,0.0
1694470597.2609365,5.859375,-43.9453125,-34.66796875,14.6484375,0.0
1694470597.2648396,-6.34765625,-45.8984375,-50.78125,-3.41796875,0.0
1694470597.268743,-18.06640625,-43.9453125,-48.33984375,-9.765625,0.0
1694470597.2726464,4.39453125,-37.109375,-39.0625,20.01953125,0.0
1694470597.2765496,13.18359375,-31.73828125,-44.921875,16.6015625,0.0
1694470597.280453,3.41796875,-32.2265625,-48.33984375,-7.32421875,0.0
1694470597.284356,1.953125,-32.71484375,-42.96875,-15.13671875,0.0
1694470597.2882595,3.90625,-34.1796875,-40.0390625,-0.48828125,0.0
1694470597.2921853,-3.41796875,-34.66796875,-39.55078125,1.46484375,0.0
1694470597.2960887,0.48828125,-34.1796875,-42.48046875,-9.765625,0.0
1694470597.299992,1.953125,-35.64453125,-41.9921875,-2.9296875,0.0
1694470597.3038952,1.46484375,-32.2265625,-33.69140625,9.765625,0.0
1694470597.3077986,15.625,-27.34375,-31.73828125,22.94921875,0.0
1694470597.311702,9.765625,-26.3671875,-34.1796875,13.671875,0.0
1694470597.3156052,-6.34765625,-31.25,-41.015625,2.44140625,0.0
1694470597.3195086,-10.25390625,-33.69140625,-44.43359375,8.7890625,0.0
1694470597.3234117,-1.46484375,-32.2265625,-43.9453125,16.11328125,0.0
1694470597.327315,3.41796875,-35.15625,-46.38671875,0.9765625,0.0
1694470597.3312185,-1.46484375,-37.59765625,-48.33984375,-23.4375,0.0
1694470597.3351216,-10.25390625,-39.0625,-51.26953125,-21.97265625,0.0
1694470597.3390496,-5.37109375,-39.55078125,-42.96875,0.9765625,0.0
1694470597.3429527,2.9296875,-41.50390625,-38.0859375,5.37109375,0.0
1694470597.346856,-10.25390625,-37.109375,-40.0390625,-4.8828125,0.0
1694470597.3507593,-20.5078125,-33.203125,-41.50390625,-19.04296875,0.0
1694470597.3546627,-0.48828125,-39.55078125,-41.9921875,-14.6484375,0.0
1694470597.358566,7.8125,-38.57421875,-44.921875,-5.37109375,0.0
1694470597.3624692,-12.20703125,-35.64453125,-52.734375,-17.578125,0.0
1694470597.3663726,-28.3203125,-33.203125,-52.734375,-30.76171875,0.0
1694470597.370276,-20.99609375,-36.62109375,-51.26953125,-20.5078125,0.0
1694470597.3741791,-9.765625,-40.52734375,-50.78125,-5.37109375,0.0
1694470597.3780825,-10.25390625,-38.57421875,-44.921875,-13.18359375,0.0
1694470597.381986,-10.7421875,-41.50390625,-45.8984375,-32.2265625,0.0
1694470597.385937,-22.4609375,-41.9921875,-46.38671875,-26.3671875,0.0
1694470597.3898404,-18.06640625,-41.9921875,-41.015625,-13.18359375,0.0
1694470597.3937435,-3.41796875,-40.0390625,-44.43359375,-16.6015625,0.0
1694470597.397647,-9.27734375,-34.1796875,-46.38671875,-33.203125,0.0
1694470597.40155,-20.99609375,-35.64453125,-47.36328125,-38.0859375,0.0
1694470597.4054534,-22.4609375,-38.57421875,-47.36328125,-13.671875,0.0
1694470597.4093568,-20.01953125,-35.64453125,-42.48046875,-12.6953125,0.0
1694470597.41326,-13.671875,-28.80859375,-40.0390625,-30.2734375,0.0
1694470597.4171634,-17.08984375,-29.296875,-36.1328125,-32.2265625,0.0
1694470597.4210668,-22.94921875,-34.1796875,-31.25,-22.94921875,0.0
1694470597.42497,-25.87890625,-36.62109375,-34.1796875,-13.671875,0.0
1694470597.4288733,-30.2734375,-41.50390625,-37.59765625,-22.94921875,0.0
1694470597.43282,-31.25,-41.015625,-34.1796875,-39.55078125,0.0
1694470597.4367235,-20.5078125,-35.64453125,-37.109375,-39.0625,0.0
1694470597.4406269,-20.01953125,-36.1328125,-41.50390625,-27.34375,0.0
1694470597.44453,-25.87890625,-36.1328125,-40.0390625,-23.92578125,0.0
1694470597.4484334,-21.97265625,-36.1328125,-38.0859375,-30.2734375,0.0
1694470597.4523368,-28.3203125,-37.109375,-33.203125,-33.203125,0.0
1694470597.45624,-15.625,-30.76171875,-35.64453125,-20.99609375,0.0
1694470597.4601433,-4.39453125,-24.4140625,-36.62109375,-14.6484375,0.0
1694470597.4640467,-22.94921875,-24.4140625,-36.62109375,-32.2265625,0.0
1694470597.4679499,-33.69140625,-22.94921875,-37.109375,-36.62109375,0.0
1694470597.4718533,-15.13671875,-24.4140625,-33.69140625,-15.625,0.0
1694470597.4757566,-4.39453125,-19.04296875,-34.1796875,-13.671875,0.0
1694470597.4796991,-10.25390625,-15.13671875,-30.76171875,-27.83203125,0.0
1694470597.4836025,-23.4375,-23.4375,-30.2734375,-34.66796875,0.0
1694470597.4875057,-28.3203125,-26.3671875,-28.80859375,-26.3671875,0.0
1694470597.491409,-23.4375,-29.78515625,-31.25,-20.01953125,0.0
1694470597.4953125,-30.76171875,-34.1796875,-31.25,-25.87890625,0.0
1694470597.4992156,-37.59765625,-33.69140625,-31.25,-38.0859375,0.0
1694470597.503119,-27.83203125,-34.66796875,-37.109375,-31.73828125,0.0
1694470597.5070224,-11.71875,-27.83203125,-35.64453125,-15.625,0.0
1694470597.5109255,-12.6953125,-26.85546875,-29.78515625,-19.53125,0.0
1694470597.514829,-36.1328125,-33.69140625,-37.59765625,-35.15625,0.0
1694470597.5187323,-33.203125,-31.73828125,-41.9921875,-38.57421875,0.0
1694470597.5226355,-16.6015625,-33.203125,-32.2265625,-19.04296875,0.0
1694470597.526574,-30.2734375,-37.59765625,-32.71484375,-8.30078125,0.0
1694470597.5304773,-37.59765625,-35.15625,-41.015625,-20.5078125,0.0
1694470597.5343807,-36.1328125,-34.66796875,-39.0625,-31.25,0.0
1694470597.5382838,-30.76171875,-39.55078125,-30.76171875,-28.80859375,0.0
1694470597.5421872,-18.5546875,-38.0859375,-24.90234375,-24.4140625,0.0
1694470597.5460906,-25.87890625,-36.62109375,-22.94921875,-32.2265625,0.0
1694470597.5499938,-46.38671875,-44.43359375,-28.80859375,-42.96875,0.0
1694470597.5538971,-39.0625,-43.45703125,-32.2265625,-28.80859375,0.0
1694470597.5578005,-22.4609375,-38.0859375,-25.87890625,-20.5078125,0.0
1694470597.5617037,-22.94921875,-33.69140625,-22.94921875,-31.25,0.0
1694470597.565607,-28.3203125,-30.76171875,-24.90234375,-38.0859375,0.0
1694470597.5695105,-33.69140625,-30.76171875,-29.78515625,-33.203125,0.0
1694470597.5734508,-15.625,-31.73828125,-26.85546875,-21.484375,0.0
1694470597.577354,-10.7421875,-28.3203125,-26.3671875,-24.90234375,0.0
1694470597.5812573,-21.484375,-31.73828125,-24.4140625,-27.34375,0.0
1694470597.5851607,-29.78515625,-35.64453125,-22.94921875,-30.2734375,0.0
1694470597.589064,-29.78515625,-26.85546875,-22.94921875,-21.97265625,0.0
1694470597.5929673,-37.109375,-29.296875,-21.97265625,-10.7421875,0.0
1694470597.5968707,-45.8984375,-35.15625,-27.34375,-25.87890625,0.0
1694470597.6007738,-44.921875,-35.64453125,-31.73828125,-39.55078125,0.0
1694470597.6046772,-41.50390625,-26.85546875,-27.83203125,-17.578125,0.0
1694470597.6085806,-24.90234375,-14.6484375,-21.97265625,-7.32421875,0.0
1694470597.6124837,-20.5078125,-19.53125,-24.90234375,-24.4140625,0.0
1694470597.6163871,-42.48046875,-28.80859375,-28.3203125,-31.25,0.0
1694470597.6203234,-41.015625,-29.296875,-27.83203125,-19.04296875,0.0
1694470597.6242266,-29.78515625,-28.3203125,-25.390625,-7.8125,0.0
1694470597.62813,-18.5546875,-33.203125,-28.3203125,-14.6484375,0.0
1694470597.6320333,-15.13671875,-31.73828125,-34.66796875,-26.85546875,0.0
1694470597.6359365,-32.71484375,-28.3203125,-36.62109375,-30.2734375,0.0
1694470597.63984,-22.4609375,-24.90234375,-35.64453125,-17.08984375,0.0
1694470597.6437433,-16.6015625,-26.3671875,-40.52734375,-15.625,0.0
1694470597.6476464,-22.4609375,-25.390625,-38.0859375,-26.85546875,0.0
1694470597.6515498,-24.90234375,-22.4609375,-29.296875,-30.2734375,0.0
1694470597.6554532,-18.06640625,-26.85546875,-28.3203125,-24.4140625,0.0
1694470597.6593564,-7.32421875,-26.3671875,-27.83203125,-19.04296875,0.0
1694470597.6632597,-8.7890625,-24.90234375,-30.76171875,-17.08984375,0.0
1694470597.667214,-23.92578125,-29.296875,-27.34375,-33.69140625,0.0
1694470597.6711173,-19.53125,-28.3203125,-20.01953125,-27.34375,0.0
1694470597.6750207,-11.71875,-30.2734375,-22.4609375,-9.27734375,0.0
1694470597.6789238,-16.11328125,-35.64453125,-21.97265625,-19.04296875,0.0
1694470597.6828272,-20.5078125,-37.109375,-22.4609375,-26.85546875,0.0
1694470597.6867306,-17.08984375,-36.1328125,-22.4609375,-16.6015625,0.0
1694470597.690634,-13.671875,-34.1796875,-25.390625,-8.30078125,0.0
1694470597.6945372,-17.08984375,-36.1328125,-28.80859375,-19.04296875,0.0
1694470597.6984406,-22.94921875,-34.66796875,-25.390625,-25.87890625,0.0
1694470597.702344,-30.2734375,-34.1796875,-28.3203125,-18.5546875,0.0
1694470597.706247,-37.109375,-38.0859375,-31.73828125,-6.8359375,0.0
1694470597.7101505,-25.87890625,-39.55078125,-32.71484375,-9.27734375,0.0
1694470597.7140732,-20.01953125,-38.0859375,-38.57421875,-28.3203125,0.0
1694470597.7179766,-21.97265625,-36.1328125,-32.71484375,-40.52734375,0.0
1694470597.72188,-22.94921875,-36.1328125,-27.34375,-23.4375,0.0
1694470597.7257833,-26.85546875,-33.69140625,-33.203125,-14.16015625,0.0
1694470597.7296865,-24.4140625,-36.62109375,-33.69140625,-32.2265625,0.0
1694470597.73359,-31.73828125,-42.96875,-35.15625,-39.0625,0.0
1694470597.7374933,-30.2734375,-43.45703125,-34.66796875,-25.87890625,0.0
1694470597.7413964,-23.92578125,-42.96875,-27.34375,-21.97265625,0.0
1694470597.7452998,-34.1796875,-41.50390625,-23.92578125,-30.76171875,0.0
1694470597.7492032,-32.71484375,-41.9921875,-34.1796875,-36.1328125,0.0
1694470597.7531064,-29.296875,-46.38671875,-38.0859375,-30.2734375,0.0
1694470597.7570097,-25.87890625,-44.921875,-27.83203125,-19.04296875,0.0
1694470597.7609503,-30.76171875,-35.15625,-28.3203125,-17.08984375,0.0
1694470597.7648537,-39.55078125,-34.1796875,-30.76171875,-32.71484375,0.0
1694470597.768757,-32.71484375,-41.50390625,-24.90234375,-28.3203125,0.0
1694470597.7726603,-15.13671875,-37.109375,-21.97265625,-8.7890625,0.0
1694470597.7765636,-15.13671875,-38.57421875,-27.34375,-12.6953125,0.0
1694470597.780467,-26.85546875,-48.828125,-31.25,-28.80859375,0.0
1694470597.7843702,-26.3671875,-44.43359375,-27.34375,-33.69140625,0.0
1694470597.7882736,-21.484375,-38.0859375,-24.4140625,-20.5078125,0.0
1694470597.792177,-13.18359375,-37.109375,-29.296875,-16.6015625,0.0
1694470597.79608,-20.99609375,-40.0390625,-38.57421875,-27.34375,0.0
1694470597.7999835,-41.015625,-41.50390625,-35.64453125,-34.66796875,0.0
1694470597.803887,-48.828125,-35.64453125,-26.85546875,-30.2734375,0.0
1694470597.8078294,-38.57421875,-36.62109375,-32.71484375,-22.4609375,0.0
1694470597.8117328,-27.83203125,-39.0625,-41.015625,-25.390625,0.0
1694470597.8156362,-30.76171875,-45.8984375,-40.0390625,-41.50390625,0.0
1694470597.8195395,-36.1328125,-46.875,-34.1796875,-38.57421875,0.0
1694470597.8234427,-23.4375,-41.50390625,-30.2734375,-21.484375,0.0
1694470597.827346,-18.06640625,-39.55078125,-27.83203125,-17.578125,0.0
1694470597.8312495,-39.0625,-39.55078125,-23.92578125,-24.4140625,0.0
1694470597.8351526,-45.41015625,-41.50390625,-24.4140625,-32.2265625,0.0
1694470597.839056,-35.64453125,-44.43359375,-29.78515625,-26.85546875,0.0
1694470597.8429594,-34.66796875,-39.0625,-32.2265625,-20.5078125,0.0
1694470597.8468626,-35.64453125,-41.015625,-25.87890625,-32.71484375,0.0
1694470597.850766,-28.80859375,-45.41015625,-25.87890625,-37.109375,0.0
1694470597.854704,-22.94921875,-39.0625,-30.76171875,-25.87890625,0.0
1694470597.8586073,-26.85546875,-37.109375,-28.3203125,-26.3671875,0.0
1694470597.8625107,-25.87890625,-35.64453125,-26.3671875,-27.83203125,0.0
1694470597.8664138,-33.69140625,-28.80859375,-24.90234375,-30.76171875,0.0
1694470597.8703172,-33.69140625,-31.73828125,-30.76171875,-35.15625,0.0
1694470597.8742206,-27.34375,-35.15625,-34.1796875,-31.25,0.0
1694470597.8781238,-29.296875,-33.69140625,-33.69140625,-31.73828125,0.0
1694470597.8820271,-25.87890625,-36.62109375,-30.2734375,-34.66796875,0.0
1694470597.8859305,-29.296875,-34.1796875,-24.90234375,-30.2734375,0.0
1694470597.889834,-24.90234375,-28.80859375,-33.69140625,-13.18359375,0.0
1694470597.893737,-19.04296875,-28.80859375,-38.57421875,-16.11328125,0.0
1694470597.8976405,-30.2734375,-29.78515625,-32.71484375,-39.55078125,0.0
1694470597.9015753,-40.52734375,-28.3203125,-28.3203125,-36.62109375,0.0
1694470597.9054785,-25.87890625,-24.4140625,-23.4375,-17.578125,0.0
1694470597.9093819,-6.34765625,-25.390625,-25.87890625,-18.06640625,0.0
1694470597.9132853,-9.765625,-27.83203125,-32.71484375,-34.66796875,0.0
1694470597.9171884,-35.64453125,-26.3671875,-29.78515625,-34.66796875,0.0
1694470597.9210918,-41.50390625,-29.78515625,-27.34375,-12.6953125,0.0
1694470597.9249952,-35.15625,-35.64453125,-29.296875,-17.08984375,0.0
1694470597.9288986,-38.0859375,-35.64453125,-33.69140625,-28.3203125,0.0
1694470597.9328017,-31.73828125,-34.66796875,-37.109375,-26.3671875,0.0
1694470597.936705,-23.92578125,-32.71484375,-33.203125,-24.90234375,0.0
1694470597.9406085,-36.62109375,-32.71484375,-28.80859375,-18.06640625,0.0
1694470597.9445117,-45.8984375,-37.109375,-35.64453125,-26.3671875,0.0
1694470597.948442,-41.015625,-37.59765625,-35.64453125,-39.0625,0.0
1694470597.9523454,-36.1328125,-35.64453125,-31.25,-34.66796875,0.0
1694470597.9562488,-27.34375,-34.66796875,-37.59765625,-21.97265625,0.0
1694470597.960152,-30.76171875,-31.73828125,-37.109375,-28.3203125,0.0
1694470597.9640553,-41.9921875,-40.0390625,-32.2265625,-42.96875,0.0
1694470597.9679587,-35.64453125,-37.59765625,-33.203125,-46.875,0.0
1694470597.971862,-20.5078125,-30.2734375,-33.203125,-33.69140625,0.0
1694470597.9757652,-32.71484375,-32.2265625,-29.78515625,-20.99609375,0.0
1694470597.9796686,-44.43359375,-26.3671875,-30.76171875,-27.34375,0.0
1694470597.983572,-45.8984375,-26.3671875,-34.1796875,-44.921875,0.0
1694470597.9874752,-32.71484375,-33.69140625,-35.15625,-42.48046875,0.0
1694470597.9913785,-19.53125,-35.15625,-37.59765625,-22.4609375,0.0
1694470597.9953108,-23.92578125,-31.25,-35.64453125,-25.87890625,0.0
1694470597.999214,-27.34375,-32.2265625,-26.3671875,-43.45703125,0.0
1694470598.0031173,-38.0859375,-37.59765625,-26.3671875,-45.41015625,0.0
1694470598.0070207,-31.25,-38.0859375,-24.4140625,-27.34375,0.0
1694470598.010924,-30.2734375,-38.57421875,-21.484375,-23.4375,0.0
1694470598.0148273,-38.0859375,-40.52734375,-30.76171875,-31.25,0.0
1694470598.0187306,-50.78125,-41.015625,-34.1796875,-28.3203125,0.0
1694470598.022634,-38.57421875,-37.109375,-32.2265625,-16.6015625,0.0
1694470598.0265372,-28.80859375,-32.2265625,-32.71484375,-24.4140625,0.0
1694470598.0304406,-43.45703125,-32.71484375,-32.71484375,-42.48046875,0.0
1694470598.034344,-46.875,-31.25,-29.78515625,-43.9453125,0.0
1694470598.0382473,-41.015625,-32.2265625,-28.3203125,-29.296875,0.0
1694470598.0421753,-29.296875,-35.64453125,-30.2734375,-24.4140625,0.0
1694470598.0460787,-32.71484375,-32.71484375,-30.2734375,-38.0859375,0.0
1694470598.049982,-38.57421875,-34.66796875,-29.78515625,-45.8984375,0.0
1694470598.0538855,-29.78515625,-41.50390625,-35.15625,-37.109375,0.0
1694470598.0577886,-25.390625,-41.9921875,-37.109375,-28.80859375,0.0
1694470598.061692,-38.57421875,-39.55078125,-30.2734375,-37.109375,0.0
1694470598.0655954,-41.9921875,-29.78515625,-32.2265625,-40.0390625,0.0
1694470598.0694985,-34.1796875,-26.85546875,-31.73828125,-37.59765625,0.0
1694470598.073402,-22.94921875,-24.90234375,-25.87890625,-24.90234375,0.0
1694470598.0773053,-27.34375,-30.2734375,-36.1328125,-28.80859375,0.0
1694470598.0812087,-30.2734375,-34.1796875,-41.9921875,-51.26953125,0.0
1694470598.0851119,-34.66796875,-30.76171875,-34.66796875,-52.24609375,0.0
1694470598.0890365,-45.8984375,-36.62109375,-37.109375,-39.0625,0.0
1694470598.0929396,-48.33984375,-36.1328125,-36.1328125,-38.0859375,0.0
1694470598.096843,-48.33984375,-32.2265625,-31.73828125,-44.921875,0.0
1694470598.1007464,-51.7578125,-34.66796875,-34.1796875,-47.8515625,0.0
1694470598.1046498,-35.64453125,-33.203125,-35.15625,-39.55078125,0.0
1694470598.108553,-14.6484375,-35.64453125,-32.2265625,-31.25,0.0
1694470598.1124563,-8.7890625,-40.0390625,-30.76171875,-34.66796875,0.0
1694470598.1163597,-20.01953125,-41.015625,-28.80859375,-49.8046875,0.0
1694470598.120263,-39.0625,-35.64453125,-31.25,-45.8984375,0.0
1694470598.1241663,-32.71484375,-34.66796875,-34.1796875,-31.25,0.0
1694470598.1280696,-20.01953125,-39.55078125,-29.78515625,-31.25,0.0
1694470598.131973,-37.109375,-34.66796875,-22.4609375,-38.57421875,0.0
1694470598.1359155,-42.48046875,-26.3671875,-27.34375,-39.55078125,0.0
1694470598.139819,-26.3671875,-27.34375,-34.1796875,-23.92578125,0.0
1694470598.1437223,-22.4609375,-33.69140625,-30.2734375,-27.83203125,0.0
1694470598.1476257,-16.11328125,-28.80859375,-29.296875,-44.43359375,0.0
1694470598.1515288,-11.23046875,-22.94921875,-24.90234375,-37.109375,0.0
1694470598.1554322,-10.25390625,-27.83203125,-18.06640625,-12.20703125,0.0
1694470598.1593356,-24.4140625,-29.78515625,-26.85546875,-9.27734375,0.0
1694470598.1632388,-35.64453125,-27.83203125,-29.78515625,-24.90234375,0.0
1694470598.1671422,-38.57421875,-27.83203125,-28.80859375,-33.69140625,0.0
1694470598.1710455,-26.3671875,-26.3671875,-34.66796875,-25.87890625,0.0
1694470598.174949,-4.39453125,-21.97265625,-29.296875,-21.484375,0.0
1694470598.178852,-6.8359375,-21.484375,-26.3671875,-34.1796875,0.0
1694470598.1827908,-20.99609375,-26.3671875,-37.109375,-49.31640625,0.0
1694470598.1866941,-31.73828125,-27.83203125,-43.9453125,-45.41015625,0.0
1694470598.1905973,-30.2734375,-22.94921875,-40.0390625,-22.94921875,0.0
1694470598.1945007,-27.34375,-26.85546875,-35.15625,-27.34375,0.0
1694470598.198404,-38.0859375,-32.2265625,-31.73828125,-44.43359375,0.0
1694470598.2023075,-44.43359375,-31.25,-33.203125,-45.41015625,0.0
1694470598.2062106,-28.3203125,-33.69140625,-33.69140625,-33.203125,0.0
1694470598.210114,-25.87890625,-35.64453125,-38.0859375,-29.296875,0.0
1694470598.2140174,-28.80859375,-36.1328125,-37.59765625,-32.2265625,0.0
1694470598.2179205,-30.2734375,-35.15625,-28.80859375,-29.78515625,0.0
1694470598.221824,-21.484375,-30.76171875,-29.296875,-22.4609375,0.0
1694470598.2257273,-17.08984375,-27.83203125,-29.296875,-10.25390625,0.0
1694470598.2296674,-20.01953125,-27.83203125,-26.3671875,-20.5078125,0.0
1694470598.2335708,-18.06640625,-28.80859375,-26.85546875,-27.34375,0.0
1694470598.2374742,-18.06640625,-26.3671875,-25.87890625,-19.04296875,0.0
1694470598.2413776,-20.5078125,-18.5546875,-24.90234375,-8.30078125,0.0
1694470598.2452807,-22.4609375,-17.08984375,-21.97265625,-14.16015625,0.0
1694470598.2491841,-23.4375,-27.34375,-24.4140625,-34.66796875,0.0
1694470598.2530875,-36.62109375,-31.73828125,-27.34375,-28.3203125,0.0
1694470598.256991,-33.69140625,-35.15625,-27.83203125,-14.6484375,0.0
1694470598.260894,-23.92578125,-39.55078125,-30.2734375,-11.71875,0.0
1694470598.2647974,-33.69140625,-38.57421875,-33.203125,-27.34375,0.0
1694470598.2687008,-30.2734375,-35.64453125,-34.66796875,-33.203125,0.0
1694470598.2726042,-23.4375,-32.2265625,-33.203125,-16.11328125,0.0
1694470598.2765403,-29.296875,-33.69140625,-29.296875,-20.01953125,0.0
1694470598.2804434,-33.69140625,-37.59765625,-28.80859375,-26.3671875,0.0
1694470598.2843468,-35.64453125,-35.15625,-31.73828125,-30.2734375,0.0
1694470598.2882502,-18.5546875,-34.1796875,-28.80859375,-23.4375,0.0
1694470598.2921536,-12.20703125,-33.203125,-26.85546875,-15.13671875,0.0
1694470598.2960567,-35.15625,-34.66796875,-27.34375,-18.06640625,0.0
1694470598.2999601,-46.38671875,-40.0390625,-33.69140625,-30.2734375,0.0
1694470598.3038635,-35.15625,-34.66796875,-38.57421875,-35.64453125,0.0
1694470598.307767,-16.6015625,-30.2734375,-37.59765625,-23.92578125,0.0
1694470598.31167,-21.97265625,-35.15625,-33.203125,-21.484375,0.0
1694470598.3155735,-41.50390625,-34.1796875,-27.34375,-30.2734375,0.0
1694470598.3194768,-35.15625,-31.73828125,-28.3203125,-26.85546875,0.0
1694470598.3234093,-21.484375,-28.80859375,-29.78515625,-9.765625,0.0
1694470598.3273127,-22.4609375,-33.69140625,-31.73828125,-13.18359375,0.0
1694470598.3312159,-24.4140625,-40.52734375,-37.109375,-29.78515625,0.0
1694470598.3351192,-37.109375,-35.15625,-34.66796875,-31.73828125,0.0
1694470598.3390226,-36.1328125,-37.59765625,-36.62109375,-15.625,0.0
1694470598.342926,-34.1796875,-41.50390625,-39.55078125,-11.71875,0.0
1694470598.3468292,-44.43359375,-40.52734375,-38.57421875,-30.76171875,0.0
1694470598.3507326,-45.41015625,-39.0625,-35.64453125,-34.66796875,0.0
1694470598.354636,-38.57421875,-34.66796875,-34.66796875,-20.99609375,0.0
1694470598.3585393,-35.15625,-32.2265625,-36.62109375,-22.94921875,0.0
1694470598.3624425,-30.2734375,-34.66796875,-33.203125,-30.76171875,0.0
1694470598.366346,-32.71484375,-35.15625,-29.78515625,-31.73828125,0.0
1694470598.3702745,-32.2265625,-39.55078125,-36.62109375,-31.73828125,0.0
1694470598.374178,-24.4140625,-41.9921875,-32.71484375,-29.296875,0.0
1694470598.3780813,-17.08984375,-42.96875,-28.80859375,-32.2265625,0.0
1694470598.3819845,-16.11328125,-41.015625,-27.83203125,-41.50390625,0.0
1694470598.3858879,-29.78515625,-36.62109375,-24.4140625,-39.55078125,0.0
1694470598.3897913,-35.64453125,-38.57421875,-21.484375,-23.4375,0.0
1694470598.3936946,-41.015625,-41.015625,-26.85546875,-28.3203125,0.0
1694470598.3975978,-34.1796875,-38.57421875,-29.78515625,-43.9453125,0.0
1694470598.4015012,-36.1328125,-41.015625,-29.78515625,-49.8046875,0.0
1694470598.4054046,-39.0625,-43.9453125,-36.62109375,-38.0859375,0.0
1694470598.409308,-33.69140625,-44.43359375,-38.57421875,-28.3203125,0.0
1694470598.4132113,-40.0390625,-34.66796875,-32.71484375,-33.69140625,0.0
1694470598.4171412,-51.26953125,-27.34375,-33.203125,-41.50390625,0.0
1694470598.4210446,-37.109375,-30.2734375,-34.66796875,-32.2265625,0.0
1694470598.4249477,-13.671875,-29.78515625,-27.83203125,-21.484375,0.0
1694470598.4288511,-22.94921875,-34.66796875,-26.85546875,-25.390625,0.0
1694470598.4327545,-35.15625,-44.921875,-32.2265625,-32.2265625,0.0
1694470598.436658,-28.80859375,-45.8984375,-31.73828125,-31.73828125,0.0
1694470598.440561,-26.85546875,-41.015625,-28.80859375,-17.08984375,0.0
1694470598.4444644,-41.9921875,-37.59765625,-28.80859375,-28.3203125,0.0
1694470598.4483678,-56.15234375,-41.015625,-33.69140625,-41.015625,0.0
1694470598.4522712,-41.015625,-41.9921875,-40.52734375,-28.80859375,0.0
1694470598.4561744,-20.01953125,-32.71484375,-39.55078125,-14.6484375,0.0
1694470598.4600778,-20.5078125,-30.76171875,-32.71484375,-13.18359375,0.0
1694470598.4640033,-28.3203125,-38.57421875,-31.73828125,-24.90234375,0.0
1694470598.4679065,-29.296875,-37.109375,-38.0859375,-27.34375,0.0
1694470598.4718099,-22.4609375,-29.296875,-37.59765625,-19.53125,0.0
1694470598.4757133,-26.3671875,-30.76171875,-30.76171875,-15.625,0.0
1694470598.4796166,-33.203125,-30.76171875,-29.78515625,-24.4140625,0.0
1694470598.4835198,-35.64453125,-28.3203125,-32.2265625,-40.0390625,0.0
1694470598.4874232,-34.1796875,-33.69140625,-30.76171875,-26.3671875,0.0
1694470598.4913266,-25.390625,-34.1796875,-31.73828125,-13.671875,0.0
1694470598.49523,-26.85546875,-30.76171875,-34.66796875,-27.34375,0.0
1694470598.4991333,-38.57421875,-26.3671875,-29.78515625,-27.83203125,0.0
1694470598.5030365,-28.3203125,-25.390625,-27.34375,-28.3203125,0.0
1694470598.50694,-16.6015625,-32.2265625,-35.15625,-29.296875,0.0
1694470598.5108614,-19.04296875,-27.83203125,-41.9921875,-27.83203125,0.0
1694470598.5147648,-27.34375,-31.25,-33.69140625,-26.3671875,0.0
1694470598.518668,-23.92578125,-36.1328125,-33.69140625,-23.4375,0.0
1694470598.5225713,-16.11328125,-38.57421875,-38.0859375,-22.4609375,0.0
1694470598.5264747,-19.04296875,-36.1328125,-29.296875,-13.18359375,0.0
1694470598.530378,-16.11328125,-28.80859375,-31.25,-22.94921875,0.0
1694470598.5342815,-29.296875,-22.4609375,-33.69140625,-37.109375,0.0
1694470598.5381846,-17.578125,-19.04296875,-30.2734375,-16.11328125,0.0
1694470598.542088,-13.18359375,-24.4140625,-29.78515625,-12.6953125,0.0
1694470598.5459914,-15.13671875,-31.25,-34.66796875,-27.34375,0.0
1694470598.5498948,-20.01953125,-35.15625,-35.64453125,-26.85546875,0.0
1694470598.553798,-29.296875,-38.0859375,-34.66796875,-21.484375,0.0
1694470598.557738,-18.06640625,-39.55078125,-33.203125,-19.04296875,0.0
1694470598.5616415,-22.94921875,-39.55078125,-38.0859375,-27.83203125,0.0
1694470598.5655446,-30.76171875,-36.1328125,-40.52734375,-30.2734375,0.0
1694470598.569448,-27.83203125,-28.80859375,-33.203125,-27.34375,0.0
1694470598.5733514,-26.3671875,-33.69140625,-35.64453125,-21.97265625,0.0
1694470598.5772548,-18.06640625,-33.203125,-37.59765625,-20.5078125,0.0
1694470598.5811582,-21.484375,-26.3671875,-32.71484375,-29.296875,0.0
1694470598.5850613,-43.9453125,-33.203125,-33.203125,-39.0625,0.0
1694470598.5889647,-27.83203125,-34.1796875,-31.73828125,-23.92578125,0.0
1694470598.592868,-20.5078125,-29.296875,-31.25,-15.625,0.0
1694470598.5967715,-36.1328125,-29.78515625,-36.1328125,-29.296875,0.0
1694470598.6006746,-42.48046875,-34.1796875,-39.55078125,-40.0390625,0.0
1694470598.6046107,-40.0390625,-33.203125,-34.1796875,-26.85546875,0.0
1694470598.608514,-30.2734375,-33.69140625,-35.15625,-20.99609375,0.0
1694470598.6124175,-30.76171875,-35.15625,-37.109375,-37.109375,0.0
1694470598.6163206,-36.1328125,-37.59765625,-32.2265625,-42.48046875,0.0
1694470598.620224,-23.4375,-37.109375,-35.64453125,-35.64453125,0.0
1694470598.6241274,-20.01953125,-39.0625,-40.0390625,-27.34375,0.0
1694470598.6280308,-20.5078125,-38.57421875,-39.55078125,-34.66796875,0.0
1694470598.6319342,-17.578125,-27.83203125,-31.73828125,-39.0625,0.0
1694470598.6358373,-27.34375,-29.78515625,-30.2734375,-27.34375,0.0
1694470598.6397407,-25.87890625,-34.1796875,-29.78515625,-15.13671875,0.0
1694470598.643644,-21.97265625,-27.34375,-26.3671875,-12.6953125,0.0
1694470598.6475475,-20.5078125,-30.76171875,-33.69140625,-17.08984375,0.0
1694470598.6514904,-32.2265625,-31.73828125,-41.50390625,-33.203125,0.0
1694470598.6553936,-44.43359375,-27.83203125,-38.0859375,-29.78515625,0.0
1694470598.659297,-36.1328125,-31.25,-37.109375,-23.4375,0.0
1694470598.6632004,-40.52734375,-37.59765625,-42.48046875,-41.015625,0.0
1694470598.6671038,-52.734375,-37.109375,-40.0390625,-46.38671875,0.0
1694470598.671007,-36.1328125,-30.76171875,-31.73828125,-32.2265625,0.0
1694470598.6749103,-26.3671875,-36.62109375,-29.78515625,-28.3203125,0.0
1694470598.6788137,-40.52734375,-44.921875,-29.78515625,-35.15625,0.0
1694470598.682717,-47.36328125,-40.52734375,-28.80859375,-34.66796875,0.0
1694470598.6866205,-37.109375,-35.15625,-30.2734375,-30.2734375,0.0
1694470598.6905236,-24.4140625,-40.52734375,-34.1796875,-22.4609375,0.0
1694470598.694427,-20.99609375,-41.9921875,-38.57421875,-29.296875,0.0
1694470598.6983602,-26.85546875,-38.0859375,-40.52734375,-38.57421875,0.0
1694470598.7022636,-21.97265625,-33.203125,-40.52734375,-35.64453125,0.0
1694470598.706167,-14.6484375,-27.83203125,-39.0625,-26.85546875,0.0
1694470598.7100704,-26.85546875,-31.25,-41.50390625,-25.87890625,0.0
1694470598.7139738,-31.25,-30.76171875,-45.41015625,-35.64453125,0.0
1694470598.717877,-35.64453125,-33.203125,-41.015625,-42.48046875,0.0
1694470598.7217803,-30.2734375,-38.0859375,-37.109375,-33.69140625,0.0
1694470598.7256837,-23.4375,-37.59765625,-40.0390625,-21.484375,0.0
1694470598.729587,-26.85546875,-38.0859375,-41.9921875,-26.85546875,0.0
1694470598.7334905,-31.73828125,-38.57421875,-38.57421875,-39.55078125,0.0
1694470598.7373936,-27.34375,-35.15625,-29.78515625,-34.1796875,0.0
1694470598.741297,-15.13671875,-32.71484375,-31.73828125,-23.92578125,0.0
1694470598.7452266,-24.90234375,-32.2265625,-38.57421875,-26.3671875,0.0
1694470598.74913,-33.69140625,-16.6015625,-34.1796875,-33.203125,0.0
1694470598.7530334,-34.1796875,-15.625,-30.2734375,-35.64453125,0.0
1694470598.7569368,-35.64453125,-22.94921875,-29.78515625,-36.1328125,0.0
1694470598.7608402,-36.62109375,-16.6015625,-15.13671875,-33.69140625,0.0
1694470598.7647433,-50.78125,-11.71875,-15.625,-43.45703125,0.0
1694470598.7686467,-62.01171875,-14.6484375,-30.76171875,-56.15234375,0.0
1694470598.77255,-65.91796875,-19.04296875,-34.1796875,-50.78125,0.0
1694470598.7764535,-62.98828125,-2.44140625,-17.578125,-60.546875,0.0
1694470598.780357,-69.3359375,15.13671875,-4.39453125,-81.54296875,0.0
1694470598.78426,-103.515625,5.859375,-26.3671875,-114.2578125,0.0
1694470598.7881634,-117.67578125,-1.953125,-41.015625,-127.9296875,0.0
1694470598.7921112,-121.09375,0.48828125,-26.85546875,-135.7421875,0.0
1694470598.7960143,-139.16015625,17.578125,-9.765625,-157.71484375,0.0
1694470598.7999177,-177.24609375,8.30078125,-10.25390625,-190.4296875,0.0
1694470598.803821,-198.2421875,-8.30078125,-11.23046875,-201.66015625,0.0
1694470598.8077245,-196.77734375,5.859375,-3.41796875,-202.1484375,0.0
1694470598.8116279,-201.66015625,15.13671875,2.44140625,-230.95703125,0.0
1694470598.815531,-228.02734375,8.7890625,2.44140625,-250.9765625,0.0
1694470598.8194344,-244.140625,11.71875,-2.9296875,-250.0,0.0
1694470598.8233378,-229.98046875,16.6015625,1.46484375,-238.76953125,0.0
1694470598.8272412,-237.3046875,6.34765625,-2.9296875,-241.2109375,0.0
1694470598.8311446,-235.83984375,-2.9296875,-12.20703125,-241.2109375,0.0
1694470598.8350477,-216.796875,-1.46484375,-2.44140625,-235.83984375,0.0
1694470598.838975,-207.03125,2.9296875,-1.953125,-221.19140625,0.0
1694470598.842878,-196.77734375,3.41796875,-12.6953125,-208.0078125,0.0
1694470598.8467815,-179.19921875,1.46484375,-11.71875,-202.63671875,0.0
1694470598.850685,-180.17578125,2.44140625,-15.13671875,-201.66015625,0.0
1694470598.8545883,-192.87109375,5.37109375,-19.53125,-187.01171875,0.0
1694470598.8584917,-187.98828125,0.48828125,-20.01953125,-167.96875,0.0
1694470598.8623948,-173.33984375,-3.90625,-19.53125,-171.38671875,0.0
1694470598.8662982,-180.6640625,-7.8125,-11.71875,-176.26953125,0.0
1694470598.8702016,-172.8515625,-14.6484375,-11.23046875,-164.55078125,0.0
1694470598.874105,-142.08984375,-21.484375,-14.6484375,-136.71875,0.0
1694470598.8780084,-122.0703125,-30.2734375,-11.71875,-128.90625,0.0
1694470598.8819115,-135.7421875,-34.66796875,-14.6484375,-140.625,0.0
1694470598.8858564,-122.55859375,-40.0390625,-17.578125,-121.09375,0.0
1694470598.8897598,-72.265625,-43.45703125,-15.625,-77.63671875,0.0
1694470598.8936632,-59.08203125,-36.62109375,-17.578125,-70.80078125,0.0
1694470598.8975663,-60.546875,-36.1328125,-28.3203125,-75.1953125,0.0
1694470598.9014697,-43.9453125,-36.1328125,-33.203125,-56.640625,0.0
1694470598.905373,-20.99609375,-41.50390625,-31.25,-30.76171875,0.0
1694470598.9092765,-17.578125,-46.38671875,-30.76171875,-13.671875,0.0
1694470598.9131799,-12.20703125,-46.875,-35.15625,-11.71875,0.0
1694470598.917083,1.46484375,-44.43359375,-36.62109375,-14.16015625,0.0
1694470598.9209864,13.18359375,-46.38671875,-35.64453125,7.32421875,0.0
1694470598.9248898,22.4609375,-45.8984375,-36.1328125,25.390625,0.0
1694470598.9287932,18.5546875,-41.50390625,-35.15625,20.5078125,0.0
1694470598.9327564,7.8125,-48.33984375,-39.55078125,14.16015625,0.0
1694470598.9366596,6.34765625,-50.78125,-46.875,19.53125,0.0
1694470598.940563,22.4609375,-47.36328125,-44.921875,38.0859375,0.0
1694470598.9444664,36.62109375,-50.29296875,-38.57421875,39.0625,0.0
1694470598.9483697,31.73828125,-48.828125,-44.921875,28.3203125,0.0
1694470598.9522731,26.3671875,-45.8984375,-53.7109375,27.83203125,0.0
1694470598.9561763,43.45703125,-46.38671875,-51.26953125,41.50390625,0.0
1694470598.9600797,49.31640625,-47.8515625,-46.875,39.55078125,0.0
1694470598.963983,44.921875,-47.8515625,-45.8984375,25.87890625,0.0
1694470598.9678864,33.69140625,-50.29296875,-51.7578125,20.99609375,0.0
1694470598.9717898,34.66796875,-49.8046875,-50.29296875,36.62109375,0.0
1694470598.9756932,31.25,-47.8515625,-46.875,46.38671875,0.0
1694470598.9796302,20.5078125,-49.31640625,-51.7578125,38.57421875,0.0
1694470598.9835336,30.76171875,-54.6875,-55.6640625,32.2265625,0.0
1694470598.987437,38.0859375,-52.24609375,-56.640625,35.64453125,0.0
1694470598.9913404,38.0859375,-45.8984375,-50.29296875,47.36328125,0.0
1694470598.9952435,41.50390625,-43.9453125,-46.38671875,42.96875,0.0
1694470598.999147,37.59765625,-39.0625,-45.8984375,34.1796875,0.0
1694470599.0030503,36.1328125,-32.2265625,-39.55078125,47.36328125,0.0
1694470599.0069537,46.38671875,-34.66796875,-44.43359375,51.7578125,0.0
1694470599.010857,46.38671875,-46.38671875,-50.29296875,37.59765625,0.0
1694470599.0147603,41.50390625,-46.38671875,-44.921875,33.69140625,0.0
1694470599.0186636,37.109375,-40.52734375,-48.33984375,39.0625,0.0
1694470599.022567,35.64453125,-42.48046875,-54.19921875,49.31640625,0.0
1694470599.0265005,28.80859375,-41.9921875,-51.26953125,52.24609375,0.0
1694470599.0304039,20.01953125,-44.43359375,-45.8984375,38.0859375,0.0
1694470599.034307,23.4375,-44.43359375,-40.0390625,24.4140625,0.0
1694470599.0382104,42.96875,-43.45703125,-37.59765625,36.62109375,0.0
1694470599.0421138,41.50390625,-42.48046875,-33.69140625,42.96875,0.0
1694470599.0460172,32.2265625,-37.59765625,-31.25,41.015625,0.0
1694470599.0499206,25.87890625,-40.0390625,-38.57421875,35.15625,0.0
1694470599.053824,26.85546875,-44.43359375,-45.41015625,31.73828125,0.0
1694470599.057727,35.15625,-40.0390625,-36.62109375,41.015625,0.0
1694470599.0616305,26.85546875,-38.0859375,-35.64453125,32.2265625,0.0
1694470599.0655339,18.5546875,-41.015625,-44.921875,14.16015625,0.0
1694470599.0694373,12.20703125,-41.50390625,-43.9453125,15.13671875,0.0
1694470599.0733721,17.08984375,-44.43359375,-37.59765625,31.25,0.0
1694470599.0772753,24.90234375,-46.38671875,-35.64453125,26.3671875,0.0
1694470599.0811787,17.578125,-50.78125,-35.64453125,15.625,0.0
1694470599.085082,12.20703125,-46.875,-38.57421875,16.11328125,0.0
1694470599.0889854,18.06640625,-41.50390625,-41.015625,23.92578125,0.0
1694470599.0928888,20.01953125,-45.8984375,-41.015625,21.97265625,0.0
1694470599.0967922,13.671875,-41.9921875,-42.96875,7.32421875,0.0
1694470599.1006954,6.34765625,-43.9453125,-43.9453125,7.8125,0.0
1694470599.1045988,16.6015625,-41.9921875,-41.50390625,20.01953125,0.0
1694470599.1085021,10.25390625,-35.64453125,-36.62109375,28.3203125,0.0
1694470599.1124055,6.34765625,-36.62109375,-39.0625,17.08984375,0.0
1694470599.116309,4.39453125,-30.2734375,-36.1328125,5.859375,0.0
1694470599.1202397,-5.859375,-32.71484375,-31.25,9.765625,0.0
1694470599.1241431,-4.8828125,-38.57421875,-33.69140625,10.25390625,0.0
1694470599.1280463,2.44140625,-33.203125,-32.71484375,9.765625,0.0
1694470599.1319497,-0.9765625,-30.76171875,-31.73828125,1.46484375,0.0
1694470599.135853,-11.23046875,-37.59765625,-37.59765625,-3.41796875,0.0
1694470599.1397564,-6.34765625,-43.45703125,-42.48046875,8.7890625,0.0
1694470599.1436598,-2.44140625,-42.96875,-35.15625,11.23046875,0.0
1694470599.1475632,-2.9296875,-42.48046875,-35.64453125,1.953125,0.0
1694470599.1514664,-13.18359375,-43.9453125,-39.55078125,-13.18359375,0.0
1694470599.1553698,-0.9765625,-46.875,-36.62109375,-7.8125,0.0
1694470599.1592731,3.41796875,-43.9453125,-42.48046875,1.46484375,0.0
1694470599.1631765,-4.8828125,-43.45703125,-41.50390625,-5.859375,0.0
1694470599.1671083,-14.16015625,-45.41015625,-40.0390625,-20.01953125,0.0
1694470599.1710117,-15.13671875,-39.0625,-37.59765625,-7.8125,0.0
1694470599.174915,7.32421875,-33.69140625,-30.76171875,7.8125,0.0
1694470599.1788185,20.5078125,-30.76171875,-27.83203125,-4.39453125,0.0
1694470599.1827219,-0.9765625,-31.73828125,-31.73828125,-12.6953125,0.0
1694470599.1866252,-6.34765625,-33.69140625,-39.55078125,-8.30078125,0.0
1694470599.1905284,-3.90625,-34.66796875,-38.0859375,8.30078125,0.0
1694470599.1944318,-12.20703125,-32.71484375,-36.1328125,5.37109375,0.0
1694470599.1983352,-4.8828125,-28.3203125,-30.76171875,-10.25390625,0.0
1694470599.2022386,-6.8359375,-27.34375,-29.296875,-11.71875,0.0
1694470599.206142,3.41796875,-26.3671875,-29.296875,0.0,0.0
1694470599.2100453,-0.9765625,-29.78515625,-31.73828125,-3.41796875,0.0
1694470599.2139742,-13.18359375,-33.203125,-33.203125,-10.25390625,0.0
1694470599.2178776,-11.23046875,-33.69140625,-24.4140625,-7.32421875,0.0
1694470599.221781,-7.8125,-27.34375,-25.87890625,1.46484375,0.0
1694470599.2256844,-11.23046875,-24.90234375,-30.2734375,-1.46484375,0.0
1694470599.2295876,-16.6015625,-30.76171875,-31.25,-19.53125,0.0
1694470599.233491,-19.04296875,-31.25,-32.71484375,-29.296875,0.0
1694470599.2373943,-12.20703125,-29.296875,-31.73828125,-19.04296875,0.0
1694470599.2412977,-16.11328125,-31.25,-30.2734375,-13.18359375,0.0
1694470599.245201,-18.06640625,-30.76171875,-29.296875,-25.390625,0.0
1694470599.2491045,-29.78515625,-33.203125,-28.3203125,-30.2734375,0.0
1694470599.253008,-31.25,-36.1328125,-34.1796875,-22.4609375,0.0
1694470599.256911,-16.6015625,-32.2265625,-31.73828125,-9.765625,0.0
1694470599.2608404,-21.484375,-35.15625,-27.34375,-7.8125,0.0
1694470599.2647438,-25.87890625,-39.55078125,-30.76171875,-19.04296875,0.0
1694470599.2686472,-16.11328125,-31.25,-27.34375,-22.94921875,0.0
1694470599.2725506,-10.25390625,-28.3203125,-20.5078125,-5.37109375,0.0
1694470599.276454,-12.6953125,-28.3203125,-20.5078125,3.90625,0.0
1694470599.2803571,-10.7421875,-23.4375,-19.04296875,-3.90625,0.0
1694470599.2842605,-17.08984375,-30.2734375,-18.06640625,-11.23046875,0.0
1694470599.288164,-4.39453125,-28.80859375,-12.6953125,2.9296875,0.0
1694470599.2920673,2.9296875,-26.3671875,-8.30078125,9.27734375,0.0
1694470599.2959707,-16.6015625,-31.73828125,-15.13671875,-10.7421875,0.0
1694470599.299874,-20.99609375,-33.69140625,-23.4375,-25.390625,0.0
1694470599.3037775,-18.5546875,-33.203125,-22.4609375,-16.11328125,0.0
1694470599.3077197,-19.53125,-33.203125,-21.97265625,0.0,0.0
1694470599.311623,-19.04296875,-34.1796875,-31.73828125,-9.765625,0.0
1694470599.3155265,-16.6015625,-29.296875,-33.69140625,-19.04296875,0.0
1694470599.3194299,-16.6015625,-28.3203125,-34.66796875,-18.06640625,0.0
1694470599.3233333,-10.7421875,-28.80859375,-33.203125,-1.953125,0.0
1694470599.3272364,-19.53125,-33.69140625,-28.3203125,-0.48828125,0.0
1694470599.3311398,-43.9453125,-36.62109375,-28.80859375,-23.4375,0.0
1694470599.3350432,-36.1328125,-31.73828125,-22.94921875,-28.80859375,0.0
1694470599.3389466,-19.04296875,-32.71484375,-31.25,-18.06640625,0.0
1694470599.34285,-17.578125,-29.296875,-35.64453125,-15.13671875,0.0
1694470599.3467534,-14.16015625,-26.3671875,-26.3671875,-19.53125,0.0
1694470599.3506567,-19.53125,-32.2265625,-24.90234375,-30.76171875,0.0
1694470599.3545952,-21.97265625,-35.64453125,-29.296875,-22.4609375,0.0
1694470599.3584986,-10.7421875,-31.73828125,-28.3203125,-9.765625,0.0
1694470599.362402,-9.765625,-26.85546875,-25.87890625,-17.08984375,0.0
1694470599.3663054,-25.390625,-25.390625,-32.71484375,-33.203125,0.0
1694470599.3702087,-19.53125,-23.4375,-34.1796875,-29.296875,0.0
1694470599.3741121,0.9765625,-19.53125,-24.90234375,-4.39453125,0.0
1694470599.3780155,2.44140625,-21.484375,-22.94921875,-9.765625,0.0
1694470599.3819187,-15.625,-21.97265625,-21.97265625,-24.90234375,0.0
1694470599.385822,-35.64453125,-25.87890625,-18.06640625,-22.4609375,0.0
1694470599.3897254,-39.0625,-28.80859375,-17.08984375,-2.9296875,0.0
1694470599.3936288,-42.48046875,-26.85546875,-19.53125,-3.41796875,0.0
1694470599.3975322,-43.9453125,-34.1796875,-32.2265625,-29.78515625,0.0
1694470599.4014668,-37.59765625,-38.0859375,-38.57421875,-39.0625,0.0
1694470599.4053702,-26.85546875,-38.0859375,-31.25,-22.4609375,0.0
1694470599.4092736,-25.390625,-35.15625,-24.90234375,-14.6484375,0.0
1694470599.4131768,-40.0390625,-38.57421875,-34.66796875,-31.73828125,0.0
1694470599.4170802,-36.62109375,-41.50390625,-39.55078125,-45.41015625,0.0
1694470599.4209836,-22.4609375,-37.59765625,-35.15625,-30.2734375,0.0
1694470599.424887,-25.390625,-40.52734375,-40.0390625,-26.85546875,0.0
1694470599.4287903,-21.484375,-46.38671875,-43.45703125,-37.59765625,0.0
1694470599.4326937,-35.64453125,-46.875,-41.50390625,-41.9921875,0.0
1694470599.436597,-53.22265625,-41.50390625,-35.15625,-36.62109375,0.0
1694470599.4405005,-44.43359375,-41.015625,-35.15625,-16.11328125,0.0
1694470599.4444036,-51.26953125,-41.50390625,-42.48046875,-23.4375,0.0
1694470599.448356,-54.19921875,-41.50390625,-45.41015625,-42.96875,0.0
1694470599.4522593,-46.875,-39.0625,-43.9453125,-36.62109375,0.0
1694470599.4561627,-32.2265625,-42.96875,-32.2265625,-11.23046875,0.0
1694470599.460066,-17.578125,-44.921875,-28.80859375,-5.37109375,0.0
1694470599.4639692,-20.01953125,-34.1796875,-38.0859375,-23.92578125,0.0
1694470599.4678726,-34.66796875,-28.3203125,-40.0390625,-36.62109375,0.0
1694470599.471776,-20.01953125,-24.90234375,-42.48046875,-26.3671875,0.0
1694470599.4756794,-16.6015625,-25.87890625,-39.55078125,-11.23046875,0.0
1694470599.4795828,-30.2734375,-32.2265625,-32.71484375,-21.484375,0.0
1694470599.4834862,-31.73828125,-32.2265625,-35.64453125,-38.57421875,0.0
1694470599.4873896,-25.87890625,-28.3203125,-34.66796875,-33.69140625,0.0
1694470599.491293,-11.71875,-26.3671875,-33.203125,-21.484375,0.0
1694470599.495225,-13.18359375,-38.0859375,-34.1796875,-24.4140625,0.0
1694470599.4991283,-39.0625,-43.9453125,-30.2734375,-37.109375,0.0
1694470599.5030317,-39.0625,-37.59765625,-30.76171875,-29.296875,0.0
1694470599.5069351,-27.34375,-39.0625,-28.80859375,-12.20703125,0.0
1694470599.5108385,-35.64453125,-43.9453125,-34.1796875,-20.99609375,0.0
1694470599.514742,-34.66796875,-41.50390625,-40.0390625,-23.92578125,0.0
1694470599.518645,-37.109375,-46.38671875,-40.52734375,-30.76171875,0.0
1694470599.5225484,-26.3671875,-44.43359375,-42.48046875,-30.2734375,0.0
1694470599.5264518,-20.5078125,-37.59765625,-43.45703125,-19.04296875,0.0
1694470599.5303552,-24.4140625,-33.203125,-35.64453125,-30.76171875,0.0
1694470599.5342586,-16.6015625,-31.73828125,-38.57421875,-35.15625,0.0
1694470599.538162,-10.25390625,-35.15625,-36.62109375,-11.71875,0.0
1694470599.5420902,-14.6484375,-33.203125,-29.78515625,-10.7421875,0.0
1694470599.5459936,-10.7421875,-34.1796875,-39.55078125,-22.4609375,0.0
1694470599.549897,-16.11328125,-34.1796875,-40.52734375,-32.71484375,0.0
1694470599.5538003,-12.6953125,-32.71484375,-41.015625,-30.76171875,0.0
1694470599.5577037,0.48828125,-30.2734375,-39.0625,-15.13671875,0.0
1694470599.5616071,-15.13671875,-30.76171875,-39.0625,-18.06640625,0.0
1694470599.5655105,-41.9921875,-31.73828125,-45.8984375,-23.4375,0.0
1694470599.5694137,-46.38671875,-33.69140625,-40.52734375,-20.99609375,0.0
1694470599.573317,-30.76171875,-34.1796875,-35.15625,-8.30078125,0.0
1694470599.5772204,-11.71875,-30.2734375,-32.71484375,-12.6953125,0.0
1694470599.5811238,-7.8125,-31.25,-29.296875,-26.85546875,0.0
1694470599.5850272,-19.04296875,-37.59765625,-31.25,-22.4609375,0.0
1694470599.5889516,-11.71875,-35.15625,-33.203125,-7.32421875,0.0
1694470599.592855,1.953125,-33.203125,-32.2265625,-1.46484375,0.0
1694470599.5967584,3.90625,-38.0859375,-27.34375,-15.625,0.0
1694470599.6006618,-14.6484375,-43.45703125,-26.85546875,-21.97265625,0.0
1694470599.6045651,-25.87890625,-49.31640625,-30.76171875,-13.671875,0.0
1694470599.6084685,-16.11328125,-50.29296875,-31.25,-13.671875,0.0
1694470599.612372,-25.390625,-49.31640625,-28.80859375,-20.5078125,0.0
1694470599.616275,-29.78515625,-47.36328125,-22.4609375,-29.296875,0.0
1694470599.6201785,-26.85546875,-44.43359375,-29.296875,-29.296875,0.0
1694470599.6240819,-22.94921875,-47.8515625,-40.52734375,-24.4140625,0.0
1694470599.6279852,-21.97265625,-52.24609375,-41.50390625,-22.94921875,0.0
1694470599.6318886,-28.3203125,-47.36328125,-42.48046875,-25.87890625,0.0
1694470599.6358306,-27.83203125,-42.48046875,-41.9921875,-27.34375,0.0
1694470599.639734,-25.390625,-43.9453125,-38.0859375,-13.18359375,0.0
1694470599.6436374,-25.87890625,-46.875,-35.15625,-10.25390625,0.0
1694470599.6475408,-20.5078125,-41.50390625,-41.015625,-25.87890625,0.0
1694470599.6514442,-20.5078125,-33.69140625,-43.45703125,-27.34375,0.0
1694470599.6553473,-25.390625,-33.69140625,-39.0625,-15.625,0.0
1694470599.6592507,-21.484375,-31.73828125,-37.109375,-7.32421875,0.0
1694470599.6631541,-13.671875,-28.3203125,-37.59765625,-17.08984375,0.0
1694470599.6670575,-20.01953125,-26.3671875,-37.59765625,-24.4140625,0.0
1694470599.670961,-6.8359375,-32.2265625,-27.83203125,5.37109375,0.0
1694470599.6748643,-6.8359375,-32.2265625,-28.3203125,18.06640625,0.0
1694470599.6787677,-31.73828125,-26.3671875,-38.0859375,-19.53125,0.0
1694470599.6827052,-42.96875,-24.4140625,-34.1796875,-40.0390625,0.0
1694470599.6866086,-30.2734375,-25.87890625,-33.69140625,-25.390625,0.0
1694470599.690512,-13.671875,-20.99609375,-40.0390625,-20.5078125,0.0
1694470599.6944153,-12.20703125,-16.6015625,-41.015625,-25.87890625,0.0
1694470599.6983187,-7.32421875,-16.11328125,-41.015625,-25.390625,0.0
1694470599.702222,-8.7890625,-16.6015625,-38.0859375,-20.5078125,0.0
1694470599.7061255,-6.34765625,-21.97265625,-35.64453125,-9.765625,0.0
1694470599.710029,7.32421875,-24.4140625,-38.0859375,-13.671875,0.0
1694470599.7139323,11.23046875,-21.484375,-41.9921875,-19.04296875,0.0
1694470599.7178357,-18.5546875,-27.83203125,-41.015625,-4.8828125,0.0
1694470599.721739,-31.73828125,-34.66796875,-34.66796875,4.39453125,0.0
1694470599.7256422,-12.6953125,-34.1796875,-44.921875,-1.953125,0.0
1694470599.7295823,-11.71875,-27.83203125,-50.78125,-6.8359375,0.0
1694470599.7334857,-26.3671875,-32.2265625,-44.921875,-17.578125,0.0
1694470599.737389,-25.390625,-36.62109375,-42.96875,-14.16015625,0.0
1694470599.7412925,-15.625,-30.76171875,-43.9453125,-3.41796875,0.0
1694470599.7451959,-22.4609375,-27.34375,-47.8515625,-21.484375,0.0
1694470599.7490993,-26.85546875,-32.2265625,-48.828125,-36.62109375,0.0
1694470599.7530024,-19.53125,-39.55078125,-52.24609375,-34.1796875,0.0
1694470599.7569058,-25.87890625,-40.52734375,-52.24609375,-28.3203125,0.0
1694470599.7608092,-21.484375,-37.109375,-46.875,-24.90234375,0.0
1694470599.7647126,-15.625,-34.66796875,-44.43359375,-30.76171875,0.0
1694470599.768616,-20.99609375,-36.62109375,-46.38671875,-29.296875,0.0
1694470599.7725194,-28.3203125,-40.0390625,-43.45703125,-19.53125,0.0
1694470599.7764554,-31.25,-39.55078125,-37.59765625,-17.578125,0.0
1694470599.7803588,-30.76171875,-43.9453125,-41.015625,-27.83203125,0.0
1694470599.784262,-35.15625,-39.55078125,-38.57421875,-25.87890625,0.0
1694470599.7881653,-25.87890625,-32.71484375,-33.203125,-9.27734375,0.0
1694470599.7920687,-21.97265625,-33.203125,-31.73828125,-10.7421875,0.0
1694470599.795972,-25.390625,-31.73828125,-31.25,-23.4375,0.0
1694470599.7998755,-32.71484375,-29.78515625,-31.73828125,-27.34375,0.0
1694470599.803779,-19.04296875,-23.4375,-28.3203125,-21.484375,0.0
1694470599.8076823,-3.41796875,-21.484375,-29.296875,-11.71875,0.0
1694470599.8115857,-15.13671875,-20.99609375,-26.85546875,-15.13671875,0.0
1694470599.815489,-27.34375,-24.4140625,-27.83203125,-20.5078125,0.0
1694470599.8193924,-20.01953125,-31.25,-33.69140625,-24.4140625,0.0
1694470599.8233242,-13.18359375,-29.78515625,-32.71484375,-17.578125,0.0
1694470599.8272276,-16.6015625,-23.4375,-33.69140625,-14.16015625,0.0
1694470599.831131,-15.13671875,-22.94921875,-34.66796875,-29.78515625,0.0
1694470599.8350344,-27.83203125,-21.484375,-33.69140625,-30.76171875,0.0
1694470599.8389378,-24.90234375,-18.5546875,-30.2734375,-16.6015625,0.0
1694470599.8428411,-14.6484375,-21.484375,-29.296875,-12.20703125,0.0
1694470599.8467445,-16.6015625,-24.4140625,-29.296875,-22.4609375,0.0
1694470599.850648,-24.4140625,-29.296875,-27.34375,-36.1328125,0.0
1694470599.8545513,-16.6015625,-29.78515625,-23.92578125,-22.94921875,0.0
1694470599.8584547,-14.16015625,-29.78515625,-25.390625,-16.6015625,0.0
1694470599.862358,-34.66796875,-29.78515625,-34.1796875,-27.83203125,0.0
1694470599.8662615,-38.0859375,-25.390625,-34.1796875,-41.50390625,0.0
1694470599.8701892,-22.4609375,-25.390625,-28.3203125,-39.55078125,0.0
1694470599.8740926,-7.32421875,-24.4140625,-25.87890625,-31.25,0.0
1694470599.877996,-9.27734375,-28.80859375,-27.83203125,-38.57421875,0.0
1694470599.881899,-9.27734375,-30.76171875,-27.34375,-47.36328125,0.0
1694470599.8858025,-21.484375,-33.69140625,-31.73828125,-47.8515625,0.0
1694470599.889706,-13.18359375,-31.25,-35.15625,-25.390625,0.0
1694470599.8936093,-1.953125,-37.109375,-33.203125,-11.23046875,0.0
1694470599.8975127,-26.85546875,-38.0859375,-36.62109375,-38.57421875,0.0
1694470599.901416,-41.9921875,-30.76171875,-39.0625,-53.22265625,0.0
1694470599.9053195,-31.25,-40.0390625,-41.50390625,-26.3671875,0.0
1694470599.9092228,-25.390625,-48.33984375,-35.64453125,-15.625,0.0
1694470599.9131262,-33.203125,-46.38671875,-28.3203125,-25.390625,0.0
1694470599.9170558,-28.80859375,-42.48046875,-29.78515625,-21.97265625,0.0
1694470599.9209592,-15.13671875,-40.52734375,-24.90234375,-2.44140625,0.0
1694470599.9248626,-2.44140625,-34.1796875,-22.4609375,4.8828125,0.0
1694470599.928766,-10.25390625,-27.83203125,-19.04296875,-5.859375,0.0
1694470599.9326694,-17.08984375,-28.3203125,-18.06640625,-21.484375,0.0
1694470599.9365728,-7.8125,-29.296875,-26.3671875,-20.99609375,0.0
1694470599.940476,-3.41796875,-32.71484375,-30.2734375,-1.953125,0.0
1694470599.9443793,-1.953125,-41.50390625,-29.78515625,-5.859375,0.0
1694470599.9482827,-20.5078125,-43.45703125,-26.3671875,-33.69140625,0.0
1694470599.952186,-28.80859375,-39.55078125,-20.5078125,-26.85546875,0.0
1694470599.9560895,-6.34765625,-35.64453125,-21.484375,-2.9296875,0.0
1694470599.959993,-4.39453125,-29.296875,-17.08984375,4.39453125,0.0
1694470599.9639187,-16.6015625,-27.83203125,-12.6953125,-7.8125,0.0
1694470599.967822,-24.90234375,-33.203125,-20.99609375,-17.08984375,0.0
1694470599.9717255,-26.3671875,-30.2734375,-29.78515625,-7.8125,0.0
1694470599.9756289,-18.06640625,-20.5078125,-24.90234375,-9.27734375,0.0
1694470599.9795322,-20.5078125,-19.04296875,-20.01953125,-20.99609375,0.0
1694470599.9834354,-27.83203125,-27.34375,-30.2734375,-27.83203125,0.0
1694470599.9873388,-23.92578125,-28.80859375,-34.66796875,-21.484375,0.0
1694470599.9912422,-17.08984375,-27.83203125,-33.69140625,-11.23046875,0.0
1694470599.9951456,-9.27734375,-32.2265625,-33.203125,-22.94921875,0.0
1694470599.999049,-22.94921875,-33.203125,-38.0859375,-36.62109375,0.0
1694470600.0029523,-38.0859375,-32.71484375,-39.0625,-30.76171875,0.0
1694470600.0068557,-25.87890625,-30.2734375,-31.73828125,-16.11328125,0.0
1694470600.010778,-20.5078125,-28.80859375,-30.2734375,-16.11328125,0.0
1694470600.0146813,-35.64453125,-32.71484375,-36.1328125,-37.59765625,0.0
1694470600.0185847,-23.92578125,-28.3203125,-36.62109375,-40.0390625,0.0
1694470600.022488,-13.18359375,-28.80859375,-35.15625,-24.4140625,0.0
1694470600.0263913,-35.64453125,-36.1328125,-39.55078125,-27.34375,0.0
1694470600.0302947,-40.0390625,-32.2265625,-32.71484375,-28.3203125,0.0
1694470600.034198,-41.015625,-32.2265625,-29.296875,-26.3671875,0.0
1694470600.0381014,-31.73828125,-33.69140625,-26.85546875,-16.6015625,0.0
1694470600.0420048,-19.04296875,-30.76171875,-19.53125,-9.765625,0.0
1694470600.0459082,-20.5078125,-32.2265625,-19.53125,-17.08984375,0.0
1694470600.0498116,-40.0390625,-31.25,-22.4609375,-29.296875,0.0
1694470600.053715,-37.109375,-31.73828125,-24.4140625,-26.3671875,0.0
1694470600.0576596,-24.4140625,-37.59765625,-27.34375,-14.16015625,0.0
1694470600.061563,-33.203125,-40.52734375,-30.2734375,-17.578125,0.0
1694470600.0654662,-37.59765625,-38.57421875,-32.71484375,-25.87890625,0.0
1694470600.0693696,-31.25,-38.0859375,-34.66796875,-24.4140625,0.0
1694470600.073273,-30.76171875,-35.64453125,-32.2265625,-17.578125,0.0
1694470600.0771763,-34.66796875,-30.2734375,-34.1796875,-25.87890625,0.0
1694470600.0810797,-34.1796875,-24.90234375,-37.109375,-30.2734375,0.0
1694470600.084983,-39.55078125,-26.3671875,-37.59765625,-29.78515625,0.0
1694470600.0888865,-33.69140625,-35.15625,-34.66796875,-22.94921875,0.0
1694470600.09279,-39.55078125,-37.59765625,-33.203125,-25.87890625,0.0
1694470600.0966933,-38.0859375,-29.78515625,-28.80859375,-40.0390625,0.0
1694470600.1005967,-44.921875,-27.83203125,-30.76171875,-41.50390625,0.0
1694470600.104532,-50.78125,-31.73828125,-36.1328125,-31.25,0.0
1694470600.1084354,-38.57421875,-24.4140625,-35.15625,-25.87890625,0.0
1694470600.1123388,-35.64453125,-20.99609375,-34.1796875,-33.203125,0.0
1694470600.1162422,-37.109375,-22.4609375,-35.64453125,-36.1328125,0.0
1694470600.1201456,-32.71484375,-25.87890625,-39.0625,-34.66796875,0.0
1694470600.1240487,-35.15625,-37.59765625,-37.109375,-21.97265625,0.0
1694470600.127952,-42.48046875,-38.0859375,-35.15625,-27.83203125,0.0
1694470600.1318555,-37.109375,-34.66796875,-31.25,-42.48046875,0.0
1694470600.1357589,-39.55078125,-36.62109375,-31.73828125,-33.203125,0.0
1694470600.1396623,-33.203125,-32.71484375,-30.76171875,-21.97265625,0.0
1694470600.1435657,-27.83203125,-30.2734375,-28.3203125,-30.76171875,0.0
1694470600.147469,-35.15625,-33.203125,-28.80859375,-39.0625,0.0
1694470600.1514063,-25.390625,-30.76171875,-24.90234375,-26.85546875,0.0
1694470600.1553097,-5.859375,-30.76171875,-23.92578125,-10.7421875,0.0
1694470600.159213,-1.953125,-39.0625,-27.34375,-12.20703125,0.0
1694470600.1631165,-11.23046875,-38.0859375,-28.3203125,-18.5546875,0.0
1694470600.1670196,-31.25,-29.296875,-26.3671875,-20.99609375,0.0
1694470600.170923,-29.296875,-26.3671875,-28.80859375,-13.671875,0.0
1694470600.1748264,-26.85546875,-30.2734375,-30.76171875,-15.13671875,0.0
1694470600.1787298,-30.76171875,-31.73828125,-35.64453125,-23.4375,0.0
1694470600.1826332,-29.78515625,-29.296875,-37.109375,-31.73828125,0.0
1694470600.1865366,-36.1328125,-27.34375,-29.78515625,-27.83203125,0.0
1694470600.19044,-30.2734375,-31.25,-31.73828125,-16.6015625,0.0
1694470600.1943433,-19.04296875,-33.203125,-38.0859375,-21.484375,0.0
1694470600.1982763,-21.484375,-35.15625,-39.55078125,-34.1796875,0.0
1694470600.2021797,-22.94921875,-34.1796875,-38.0859375,-33.203125,0.0
1694470600.206083,-20.01953125,-33.203125,-37.59765625,-17.08984375,0.0
1694470600.2099864,-28.3203125,-38.0859375,-37.109375,-20.01953125,0.0
1694470600.2138898,-34.66796875,-41.015625,-36.62109375,-33.203125,0.0
1694470600.2177932,-38.0859375,-43.9453125,-33.203125,-32.71484375,0.0
1694470600.2216966,-37.59765625,-38.57421875,-28.80859375,-24.4140625,0.0
1694470600.2256,-38.0859375,-38.57421875,-29.296875,-22.4609375,0.0
1694470600.2295034,-36.1328125,-40.0390625,-33.203125,-29.78515625,0.0
1694470600.2334068,-30.76171875,-30.76171875,-27.83203125,-41.015625,0.0
1694470600.2373102,-28.80859375,-32.2265625,-27.34375,-25.87890625,0.0
1694470600.2412136,-24.4140625,-37.59765625,-34.1796875,-17.578125,0.0
1694470600.2451432,-32.2265625,-32.71484375,-28.3203125,-32.2265625,0.0
1694470600.2490466,-43.45703125,-32.71484375,-23.92578125,-36.62109375,0.0
1694470600.25295,-26.85546875,-34.66796875,-27.34375,-23.92578125,0.0
1694470600.2568533,-13.18359375,-32.2265625,-29.78515625,-12.6953125,0.0
1694470600.2607567,-17.578125,-32.2265625,-26.85546875,-22.94921875,0.0
1694470600.2646601,-28.3203125,-36.1328125,-25.87890625,-31.73828125,0.0
1694470600.2685633,-27.34375,-40.0390625,-29.78515625,-14.16015625,0.0
1694470600.2724667,-11.71875,-34.66796875,-31.73828125,2.9296875,0.0
1694470600.27637,-23.4375,-23.4375,-37.59765625,-18.5546875,0.0
1694470600.2802734,-42.48046875,-22.94921875,-45.41015625,-45.8984375,0.0
1694470600.2841768,-38.0859375,-23.4375,-40.0390625,-41.015625,0.0
1694470600.2880802,-21.484375,-22.94921875,-36.62109375,-23.4375,0.0
1694470600.2920055,-16.11328125,-27.34375,-40.52734375,-23.92578125,0.0
1694470600.295909,-17.578125,-30.76171875,-40.52734375,-31.25,0.0
1694470600.2998123,-23.4375,-29.296875,-37.59765625,-34.66796875,0.0
1694470600.3037157,-25.390625,-26.3671875,-36.1328125,-20.5078125,0.0
1694470600.307619,-30.76171875,-25.390625,-39.55078125,-16.11328125,0.0
1694470600.3115225,-41.50390625,-27.83203125,-36.1328125,-22.4609375,0.0
1694470600.3154259,-45.8984375,-33.203125,-36.1328125,-31.73828125,0.0
1694470600.3193293,-29.78515625,-28.80859375,-41.50390625,-29.78515625,0.0
1694470600.3232327,-10.25390625,-22.4609375,-35.15625,-8.30078125,0.0
1694470600.327136,-18.06640625,-24.90234375,-32.2265625,-15.625,0.0
1694470600.3310394,-27.34375,-23.4375,-36.1328125,-32.71484375,0.0
1694470600.3349428,-21.484375,-14.6484375,-32.2265625,-25.390625,0.0
1694470600.3388696,-20.01953125,-20.5078125,-31.73828125,-9.765625,0.0
1694470600.342773,-22.94921875,-29.78515625,-37.59765625,-12.6953125,0.0
1694470600.3466763,-13.671875,-24.4140625,-44.43359375,-37.59765625,0.0
1694470600.3505797,-26.3671875,-22.4609375,-39.0625,-43.9453125,0.0
1694470600.3544831,-30.76171875,-21.97265625,-34.66796875,-25.87890625,0.0
1694470600.3583865,-23.92578125,-20.01953125,-43.45703125,-23.92578125,0.0
1694470600.36229,-24.90234375,-24.4140625,-42.96875,-37.109375,0.0
1694470600.3661933,-28.3203125,-28.80859375,-31.73828125,-43.45703125,0.0
1694470600.3700967,-20.01953125,-30.2734375,-30.2734375,-33.69140625,0.0
1694470600.374,-7.8125,-30.2734375,-26.3671875,-16.6015625,0.0
1694470600.3779035,-8.30078125,-27.34375,-23.92578125,-19.04296875,0.0
1694470600.3818069,-19.04296875,-29.78515625,-28.3203125,-32.71484375,0.0
1694470600.3857512,-27.34375,-30.76171875,-25.390625,-27.83203125,0.0
1694470600.3896546,-20.5078125,-29.296875,-26.85546875,-16.6015625,0.0
1694470600.393558,-26.85546875,-32.2265625,-22.94921875,-16.11328125,0.0
1694470600.3974614,-31.73828125,-29.296875,-17.08984375,-30.76171875,0.0
1694470600.4013648,-30.76171875,-29.296875,-16.6015625,-36.1328125,0.0
1694470600.4052682,-32.2265625,-34.66796875,-17.08984375,-14.16015625,0.0
1694470600.4091716,-32.71484375,-35.15625,-22.94921875,-17.08984375,0.0
1694470600.413075,-26.85546875,-35.64453125,-23.92578125,-35.64453125,0.0
1694470600.4169784,-29.296875,-34.1796875,-18.06640625,-35.64453125,0.0
1694470600.4208817,-36.62109375,-31.73828125,-11.23046875,-12.6953125,0.0
1694470600.4247851,-37.59765625,-34.1796875,-26.85546875,-11.71875,0.0
1694470600.4286885,-33.203125,-30.2734375,-33.203125,-27.83203125,0.0
1694470600.4326296,-42.48046875,-29.78515625,-23.4375,-26.85546875,0.0
1694470600.436533,-38.57421875,-33.203125,-25.390625,-22.4609375,0.0
1694470600.4404364,-26.3671875,-34.1796875,-23.92578125,-10.25390625,0.0
1694470600.4443398,-29.78515625,-35.15625,-22.4609375,-17.08984375,0.0
1694470600.4482431,-28.80859375,-31.73828125,-26.3671875,-38.0859375,0.0
1694470600.4521465,-34.66796875,-33.69140625,-26.3671875,-32.2265625,0.0
1694470600.45605,-43.45703125,-35.64453125,-28.3203125,-18.5546875,0.0
1694470600.4599533,-37.109375,-30.2734375,-26.3671875,-19.53125,0.0
1694470600.4638567,-20.99609375,-32.2265625,-21.97265625,-22.4609375,0.0
1694470600.46776,-24.4140625,-28.3203125,-22.4609375,-23.4375,0.0
1694470600.4716635,-36.62109375,-25.390625,-23.4375,-21.97265625,0.0
1694470600.4755669,-48.33984375,-34.1796875,-23.4375,-28.80859375,0.0
1694470600.4795036,-44.921875,-38.57421875,-21.97265625,-41.015625,0.0
1694470600.483407,-42.96875,-36.62109375,-24.4140625,-49.31640625,0.0
1694470600.4873104,-35.64453125,-33.203125,-23.92578125,-35.64453125,0.0
1694470600.4912138,-29.78515625,-32.71484375,-24.4140625,-26.3671875,0.0
1694470600.4951172,-51.7578125,-34.66796875,-29.78515625,-40.0390625,0.0
1694470600.4990206,-64.453125,-35.64453125,-29.78515625,-49.31640625,0.0
1694470600.502924,-50.78125,-37.59765625,-24.4140625,-39.0625,0.0
1694470600.5068274,-31.73828125,-33.69140625,-20.01953125,-23.92578125,0.0
1694470600.5107305,-29.296875,-33.203125,-23.4375,-31.73828125,0.0
1694470600.514634,-34.66796875,-30.76171875,-27.83203125,-43.9453125,0.0
1694470600.5185373,-43.45703125,-26.3671875,-32.71484375,-43.45703125,0.0
1694470600.5224407,-49.31640625,-30.2734375,-36.62109375,-28.80859375,0.0
1694470600.5263736,-50.78125,-27.83203125,-33.69140625,-22.94921875,0.0
1694470600.530277,-44.43359375,-27.83203125,-32.2265625,-40.0390625,0.0
1694470600.5341804,-47.8515625,-32.71484375,-33.69140625,-54.6875,0.0
1694470600.5380838,-47.36328125,-30.76171875,-28.3203125,-36.62109375,0.0
1694470600.5419872,-41.50390625,-33.69140625,-30.2734375,-23.4375,0.0
1694470600.5458906,-40.52734375,-41.9921875,-40.0390625,-39.55078125,0.0
1694470600.549794,-46.38671875,-42.48046875,-40.52734375,-48.828125,0.0
1694470600.5536973,-37.109375,-36.62109375,-40.52734375,-42.48046875,0.0
1694470600.5576007,-35.15625,-36.62109375,-38.57421875,-30.76171875,0.0
1694470600.5615041,-33.203125,-36.62109375,-24.4140625,-31.73828125,0.0
1694470600.5654075,-29.296875,-35.15625,-24.90234375,-45.8984375,0.0
1694470600.569311,-37.109375,-33.203125,-36.1328125,-44.43359375,0.0
1694470600.573262,-22.94921875,-33.69140625,-35.15625,-26.3671875,0.0
1694470600.5771654,-28.80859375,-32.71484375,-35.15625,-33.69140625,0.0
1694470600.5810688,-43.45703125,-32.2265625,-39.0625,-50.78125,0.0
1694470600.5849721,-39.0625,-32.2265625,-33.203125,-47.8515625,0.0
1694470600.5888755,-34.66796875,-31.73828125,-27.34375,-29.296875,0.0
1694470600.592779,-34.1796875,-29.78515625,-31.73828125,-24.90234375,0.0
1694470600.5966823,-31.25,-32.71484375,-31.73828125,-39.0625,0.0
1694470600.6005857,-42.48046875,-40.52734375,-34.1796875,-42.48046875,0.0
1694470600.604489,-49.31640625,-35.64453125,-33.203125,-32.2265625,0.0
1694470600.6083925,-34.1796875,-29.78515625,-27.83203125,-22.4609375,0.0
1694470600.6122959,-36.1328125,-33.203125,-27.34375,-34.66796875,0.0
1694470600.6161993,-36.62109375,-32.71484375,-31.73828125,-45.8984375,0.0
1694470600.6201298,-27.34375,-30.2734375,-25.390625,-29.78515625,0.0
1694470600.6240332,-24.4140625,-32.2265625,-21.97265625,-23.4375,0.0
1694470600.6279366,-32.2265625,-28.80859375,-27.34375,-30.76171875,0.0
1694470600.63184,-44.43359375,-26.3671875,-33.203125,-38.57421875,0.0
1694470600.6357434,-49.8046875,-26.3671875,-30.76171875,-33.69140625,0.0
1694470600.6396468,-45.8984375,-24.90234375,-26.3671875,-20.99609375,0.0
1694470600.6435502,-34.1796875,-25.87890625,-32.71484375,-26.3671875,0.0
1694470600.6474535,-29.296875,-24.4140625,-31.25,-36.62109375,0.0
1694470600.651357,-39.55078125,-22.94921875,-28.3203125,-38.57421875,0.0
1694470600.6552603,-42.96875,-25.390625,-33.203125,-26.3671875,0.0
1694470600.6591637,-29.296875,-26.3671875,-36.62109375,-18.06640625,0.0
1694470600.663067,-27.34375,-21.97265625,-34.66796875,-20.5078125,0.0
1694470600.6669936,-35.64453125,-22.94921875,-40.0390625,-28.3203125,0.0
1694470600.670897,-26.3671875,-24.4140625,-38.57421875,-19.04296875,0.0
1694470600.6748004,-30.76171875,-22.94921875,-36.1328125,-20.5078125,0.0
1694470600.6787038,-38.0859375,-27.34375,-38.57421875,-32.2265625,0.0
1694470600.6826072,-34.1796875,-31.73828125,-36.1328125,-38.57421875,0.0
1694470600.6865106,-37.109375,-33.69140625,-41.50390625,-34.1796875,0.0
1694470600.690414,-28.3203125,-37.59765625,-45.41015625,-18.5546875,0.0
1694470600.6943173,-21.484375,-42.48046875,-42.48046875,-23.92578125,0.0
1694470600.6982207,-28.80859375,-40.0390625,-41.9921875,-35.15625,0.0
1694470600.702124,-29.296875,-37.109375,-36.62109375,-40.0390625,0.0
1694470600.7060275,-20.5078125,-32.2265625,-25.87890625,-26.3671875,0.0
1694470600.709931,-24.90234375,-29.78515625,-26.85546875,-26.3671875,0.0
1694470600.7138534,-51.26953125,-31.25,-34.66796875,-44.921875,0.0
1694470600.7177567,-51.7578125,-30.76171875,-40.52734375,-49.31640625,0.0
1694470600.7216601,-41.50390625,-29.296875,-41.015625,-35.15625,0.0
1694470600.7255635,-32.71484375,-25.87890625,-38.0859375,-28.3203125,0.0
1694470600.729467,-19.53125,-23.4375,-40.52734375,-34.66796875,0.0
1694470600.7333703,-32.2265625,-30.76171875,-46.875,-43.9453125,0.0
1694470600.7372737,-26.85546875,-33.203125,-42.96875,-28.3203125,0.0
1694470600.741177,-16.6015625,-33.203125,-41.9921875,-19.53125,0.0
1694470600.7450805,-24.90234375,-33.69140625,-46.38671875,-34.1796875,0.0
1694470600.7489839,-26.85546875,-28.3203125,-36.1328125,-36.62109375,0.0
1694470600.7528872,-27.83203125,-24.4140625,-30.2734375,-25.390625,0.0
1694470600.7567906,-20.99609375,-23.92578125,-33.69140625,-17.08984375,0.0
1694470600.7607203,-6.8359375,-27.83203125,-38.0859375,-16.6015625,0.0
1694470600.7646236,-3.90625,-35.15625,-31.73828125,-16.11328125,0.0
1694470600.768527,-36.1328125,-40.52734375,-22.4609375,-31.73828125,0.0
1694470600.7724304,-51.26953125,-37.109375,-20.01953125,-30.76171875,0.0
1694470600.7763338,-45.8984375,-38.0859375,-19.04296875,-30.76171875,0.0
1694470600.7802372,-52.734375,-41.015625,-23.92578125,-42.48046875,0.0
1694470600.7841406,-52.734375,-36.1328125,-32.2265625,-45.41015625,0.0
1694470600.788044,-43.9453125,-36.1328125,-27.83203125,-38.0859375,0.0
1694470600.7919474,-38.57421875,-39.0625,-27.83203125,-29.296875,0.0
1694470600.7958508,-36.62109375,-37.109375,-28.3203125,-30.76171875,0.0
1694470600.7997541,-48.828125,-33.69140625,-19.04296875,-38.57421875,0.0
1694470600.8036575,-45.41015625,-36.1328125,-20.01953125,-28.3203125,0.0
1694470600.8076053,-34.66796875,-48.828125,-21.97265625,-18.5546875,0.0
1694470600.8115087,-39.0625,-47.36328125,-29.296875,-30.2734375,0.0
1694470600.815412,-39.55078125,-37.59765625,-33.203125,-37.109375,0.0
1694470600.8193154,-38.0859375,-37.109375,-26.85546875,-36.1328125,0.0
1694470600.8232188,-36.1328125,-39.55078125,-31.25,-32.71484375,0.0
1694470600.8271222,-33.203125,-38.57421875,-32.71484375,-33.203125,0.0
1694470600.8310256,-27.34375,-37.109375,-33.69140625,-38.0859375,0.0
1694470600.834929,-22.94921875,-27.34375,-33.203125,-38.0859375,0.0
1694470600.8388324,-24.4140625,-24.4140625,-24.90234375,-20.01953125,0.0
1694470600.8427358,-23.92578125,-27.34375,-18.5546875,-12.20703125,0.0
1694470600.8466392,-38.0859375,-29.78515625,-24.90234375,-28.80859375,0.0
1694470600.8505425,-45.41015625,-32.2265625,-32.2265625,-35.64453125,0.0
1694470600.854486,-26.3671875,-37.59765625,-34.66796875,-20.5078125,0.0
1694470600.8583894,-20.99609375,-34.1796875,-34.1796875,-19.04296875,0.0
1694470600.8622928,-24.90234375,-25.87890625,-31.73828125,-26.85546875,0.0
1694470600.8661962,-29.78515625,-32.2265625,-34.66796875,-38.0859375,0.0
1694470600.8700995,-26.3671875,-34.66796875,-33.203125,-33.203125,0.0
1694470600.874003,-18.06640625,-33.203125,-31.25,-24.4140625,0.0
1694470600.8779063,-18.5546875,-37.59765625,-31.25,-30.76171875,0.0
1694470600.8818097,-22.4609375,-35.64453125,-30.76171875,-35.64453125,0.0
1694470600.885713,-22.94921875,-30.2734375,-30.76171875,-24.90234375,0.0
1694470600.8896165,-26.3671875,-32.2265625,-33.69140625,-18.06640625,0.0
1694470600.8935199,-28.3203125,-39.55078125,-37.59765625,-33.69140625,0.0
1694470600.8974233,-37.109375,-44.43359375,-33.203125,-41.015625,0.0
1694470600.9013574,-37.59765625,-42.48046875,-24.90234375,-41.015625,0.0
1694470600.9052608,-27.34375,-44.43359375,-27.34375,-31.25,0.0
1694470600.9091642,-31.73828125,-43.9453125,-31.73828125,-30.2734375,0.0
1694470600.9130676,-41.9921875,-39.55078125,-30.2734375,-41.50390625,0.0
1694470600.916971,-48.828125,-37.59765625,-38.57421875,-43.45703125,0.0
1694470600.9208744,-27.83203125,-32.2265625,-46.875,-30.2734375,0.0
1694470600.9247777,0.48828125,-28.3203125,-43.9453125,-6.34765625,0.0
1694470600.9286811,-2.9296875,-33.69140625,-36.1328125,-3.41796875,0.0
1694470600.9325845,-39.55078125,-41.50390625,-29.296875,-36.62109375,0.0
1694470600.936488,-42.48046875,-41.9921875,-18.06640625,-42.96875,0.0
1694470600.9403913,-25.390625,-40.52734375,-14.6484375,-17.08984375,0.0
1694470600.9442947,-20.5078125,-43.9453125,-20.01953125,-8.7890625,0.0
1694470600.948225,-14.6484375,-44.921875,-15.625,-16.11328125,0.0
1694470600.9521284,-14.6484375,-53.22265625,-7.32421875,-13.18359375,0.0
1694470600.9560318,-7.8125,-61.03515625,-9.27734375,7.8125,0.0
1694470600.9599352,-1.46484375,-57.6171875,-13.671875,16.6015625,0.0
1694470600.9638386,-11.71875,-53.7109375,-9.27734375,9.27734375,0.0
1694470600.967742,-9.765625,-55.6640625,-9.765625,8.30078125,0.0
1694470600.9716454,-3.90625,-59.08203125,-14.16015625,18.06640625,0.0
1694470600.9755487,-7.32421875,-56.15234375,-18.5546875,21.484375,0.0
1694470600.9794521,-12.6953125,-50.29296875,-20.01953125,5.37109375,0.0
1694470600.9833555,-30.76171875,-44.43359375,-17.08984375,-1.46484375,0.0
1694470600.987259,-28.80859375,-43.45703125,-17.08984375,9.765625,0.0
1694470600.9911623,-15.13671875,-44.921875,-17.08984375,12.6953125,0.0
1694470600.9950993,-5.859375,-42.48046875,-17.08984375,8.7890625,0.0
1694470600.9990027,-9.765625,-41.015625,-15.13671875,7.8125,0.0
1694470601.002906,-9.765625,-41.50390625,-17.578125,10.25390625,0.0
1694470601.0068095,-3.90625,-43.9453125,-25.87890625,13.18359375,0.0
1694470601.0107129,-6.8359375,-42.96875,-23.4375,3.41796875,0.0
1694470601.0146163,-9.765625,-45.41015625,-24.90234375,-14.16015625,0.0
1694470601.0185196,-12.20703125,-43.45703125,-24.90234375,-14.6484375,0.0
1694470601.022423,-4.39453125,-39.55078125,-24.90234375,0.0,0.0
1694470601.0263264,-14.6484375,-40.52734375,-26.3671875,-0.9765625,0.0
1694470601.0302298,-27.34375,-38.0859375,-28.80859375,-18.5546875,0.0
1694470601.0341332,-32.71484375,-36.1328125,-27.83203125,-25.390625,0.0
1694470601.0380366,-32.2265625,-36.62109375,-25.87890625,-14.6484375,0.0
1694470601.0419648,-16.11328125,-37.109375,-25.390625,-9.27734375,0.0
1694470601.0458682,-14.6484375,-34.1796875,-23.4375,-10.7421875,0.0
1694470601.0497718,-21.484375,-30.2734375,-24.90234375,-18.06640625,0.0
1694470601.0536752,-17.08984375,-26.85546875,-19.04296875,-15.625,0.0
1694470601.0575786,-20.99609375,-31.73828125,-14.6484375,2.44140625,0.0
1694470601.061482,-18.06640625,-37.59765625,-18.5546875,-8.7890625,0.0
1694470601.0653853,-27.83203125,-37.109375,-22.4609375,-19.04296875,0.0
1694470601.0692887,-36.1328125,-31.73828125,-19.04296875,-11.23046875,0.0
1694470601.0731921,-13.671875,-28.3203125,-17.578125,-4.8828125,0.0
1694470601.0770955,-19.53125,-33.203125,-27.34375,-10.25390625,0.0
1694470601.080999,-33.69140625,-39.55078125,-30.2734375,-18.06640625,0.0
1694470601.0849023,-26.3671875,-33.203125,-24.90234375,-16.6015625,0.0
1694470601.0888479,-22.4609375,-30.2734375,-14.6484375,-4.8828125,0.0
1694470601.0927513,-32.2265625,-37.109375,-22.94921875,-6.34765625,0.0
1694470601.0966547,-27.34375,-35.64453125,-31.25,-21.97265625,0.0
1694470601.100558,-23.92578125,-33.69140625,-27.83203125,-31.73828125,0.0
1694470601.1044614,-22.4609375,-38.57421875,-27.83203125,-20.5078125,0.0
1694470601.1083648,-19.53125,-41.015625,-29.78515625,-15.13671875,0.0
1694470601.1122682,-26.3671875,-38.0859375,-27.34375,-29.78515625,0.0
1694470601.1161716,-33.203125,-32.2265625,-21.97265625,-33.203125,0.0
1694470601.120075,-26.3671875,-30.76171875,-25.390625,-23.4375,0.0
1694470601.1239784,-15.13671875,-33.203125,-30.76171875,-11.71875,0.0
1694470601.127882,-26.3671875,-32.2265625,-28.80859375,-18.5546875,0.0
1694470601.1317854,-31.25,-25.87890625,-22.94921875,-36.1328125,0.0
1694470601.1357272,-20.5078125,-27.34375,-23.92578125,-30.2734375,0.0
1694470601.1396306,-7.32421875,-32.71484375,-24.4140625,-18.06640625,0.0
1694470601.143534,-4.8828125,-27.34375,-29.296875,-25.87890625,0.0
1694470601.1474373,-31.25,-24.4140625,-35.64453125,-51.26953125,0.0
1694470601.1513407,-40.0390625,-23.92578125,-34.66796875,-60.546875,0.0
1694470601.155244,-23.4375,-23.4375,-30.2734375,-33.203125,0.0
1694470601.1591475,-30.2734375,-30.2734375,-29.78515625,-25.390625,0.0
1694470601.163051,-35.15625,-37.109375,-32.2265625,-42.48046875,0.0
1694470601.1669543,-28.80859375,-31.25,-29.296875,-46.38671875,0.0
1694470601.1708577,-16.11328125,-27.34375,-29.78515625,-21.97265625,0.0
1694470601.174761,-13.671875,-24.90234375,-31.25,-13.18359375,0.0
1694470601.1786644,-11.71875,-20.01953125,-27.83203125,-27.83203125,0.0
1694470601.1826024,-27.34375,-22.94921875,-34.1796875,-37.59765625,0.0
1694470601.1865058,-37.109375,-24.90234375,-35.64453125,-31.25,0.0
1694470601.1904094,-17.08984375,-21.484375,-28.80859375,-20.5078125,0.0
1694470601.1943128,-18.06640625,-19.04296875,-26.85546875,-28.3203125,0.0
1694470601.1982162,-19.53125,-19.04296875,-28.80859375,-33.203125,0.0
1694470601.2021196,-15.13671875,-20.99609375,-37.59765625,-30.2734375,0.0
1694470601.206023,-7.8125,-21.97265625,-43.45703125,-27.83203125,0.0
1694470601.2099264,-5.37109375,-23.92578125,-41.50390625,-32.2265625,0.0
1694470601.2138298,-21.97265625,-30.76171875,-39.55078125,-32.2265625,0.0
1694470601.2177331,-40.0390625,-33.203125,-40.52734375,-33.203125,0.0
1694470601.2216365,-30.76171875,-26.3671875,-33.203125,-18.06640625,0.0
1694470601.22554,-21.97265625,-31.25,-34.66796875,-11.71875,0.0
1694470601.229485,-28.80859375,-39.0625,-41.50390625,-27.83203125,0.0
1694470601.2333884,-33.203125,-38.57421875,-37.59765625,-32.71484375,0.0
1694470601.2372918,-28.80859375,-35.15625,-31.73828125,-20.01953125,0.0
1694470601.2411952,-22.4609375,-31.73828125,-31.25,-10.25390625,0.0
1694470601.2450986,-31.73828125,-32.71484375,-31.73828125,-19.53125,0.0
1694470601.249002,-45.8984375,-39.55078125,-31.73828125,-36.1328125,0.0
1694470601.2529054,-39.0625,-38.0859375,-30.2734375,-34.1796875,0.0
1694470601.2568088,-22.4609375,-30.76171875,-29.78515625,-20.5078125,0.0
1694470601.2607121,-32.2265625,-37.109375,-38.57421875,-22.4609375,0.0
1694470601.2646155,-33.69140625,-40.0390625,-41.50390625,-36.62109375,0.0
1694470601.268519,-28.80859375,-30.76171875,-40.0390625,-38.0859375,0.0
1694470601.2724226,-32.2265625,-30.2734375,-43.9453125,-22.94921875,0.0
1694470601.276358,-32.71484375,-36.1328125,-43.45703125,-32.2265625,0.0
1694470601.2802613,-36.1328125,-33.203125,-34.1796875,-45.41015625,0.0
1694470601.2841647,-41.015625,-29.78515625,-30.76171875,-39.55078125,0.0
1694470601.2880683,-50.29296875,-36.62109375,-38.57421875,-27.83203125,0.0
1694470601.2919717,-41.50390625,-33.203125,-39.55078125,-22.4609375,0.0
1694470601.295875,-36.62109375,-28.3203125,-39.55078125,-39.0625,0.0
1694470601.2997785,-25.87890625,-18.5546875,-19.53125,-31.73828125,0.0
1694470601.3036819,-16.11328125,-10.7421875,-6.34765625,-16.11328125,0.0
1694470601.3075852,-29.78515625,-22.4609375,-21.97265625,-26.85546875,0.0
1694470601.3114886,-56.640625,-27.83203125,-38.57421875,-51.26953125,0.0
1694470601.315392,-76.66015625,-29.296875,-33.203125,-65.4296875,0.0
1694470601.3192954,-66.40625,-28.80859375,-32.2265625,-54.6875,0.0
1694470601.3232274,-81.0546875,-34.66796875,-35.15625,-63.4765625,0.0
1694470601.3271308,-90.8203125,-10.25390625,-8.30078125,-81.0546875,0.0
1694470601.3310342,-111.81640625,11.23046875,-7.32421875,-125.0,0.0
1694470601.3349376,-146.97265625,4.39453125,-11.23046875,-159.1796875,0.0
1694470601.3388412,-187.98828125,11.23046875,-6.8359375,-175.29296875,0.0
1694470601.3427446,-251.46484375,17.08984375,-20.99609375,-234.86328125,0.0
1694470601.346648,-286.1328125,12.20703125,-16.11328125,-279.78515625,0.0
1694470601.3505514,-292.48046875,7.32421875,0.0,-291.015625,0.0
1694470601.3544548,-299.31640625,12.20703125,-7.8125,-298.33984375,0.0
1694470601.3583581,-309.08203125,20.5078125,-11.23046875,-322.75390625,0.0
1694470601.3622615,-327.1484375,12.20703125,-6.34765625,-351.07421875,0.0
1694470601.366165,-339.35546875,9.765625,-7.8125,-363.76953125,0.0
1694470601.3700929,-341.30859375,14.16015625,-9.765625,-359.86328125,0.0
1694470601.3739963,-334.47265625,12.20703125,-8.30078125,-337.890625,0.0
1694470601.3778996,-333.984375,-1.953125,-7.8125,-326.66015625,0.0
1694470601.3818033,-319.3359375,-14.16015625,-4.8828125,-319.3359375,0.0
1694470601.3857067,-305.6640625,-14.6484375,-3.90625,-312.01171875,0.0
1694470601.38961,-288.57421875,-13.18359375,-3.41796875,-291.9921875,0.0
1694470601.3935134,-264.6484375,-14.16015625,-6.8359375,-285.64453125,0.0
1694470601.3974168,-258.30078125,-21.97265625,-15.625,-286.1328125,0.0
1694470601.4013202,-249.0234375,-29.296875,-20.5078125,-258.7890625,0.0
1694470601.4052236,-232.421875,-49.8046875,-26.3671875,-215.33203125,0.0
1694470601.409127,-190.4296875,-60.546875,-26.3671875,-178.22265625,0.0
1694470601.4130304,-145.5078125,-44.921875,-21.484375,-172.36328125,0.0
1694470601.4169598,-127.9296875,-53.22265625,-32.71484375,-166.015625,0.0
1694470601.4208632,-109.375,-56.15234375,-36.62109375,-125.0,0.0
1694470601.4247665,-110.83984375,-35.64453125,-35.64453125,-95.703125,0.0
1694470601.42867,-108.3984375,-32.71484375,-31.25,-86.42578125,0.0
1694470601.4325736,-82.51953125,-49.8046875,-39.0625,-75.68359375,0.0
1694470601.436477,-51.26953125,-69.82421875,-48.828125,-57.12890625,0.0
1694470601.4403803,-30.76171875,-74.21875,-51.26953125,-35.15625,0.0
1694470601.4442837,-23.92578125,-57.12890625,-51.7578125,-25.87890625,0.0
1694470601.448187,-17.08984375,-57.6171875,-45.8984375,-21.97265625,0.0
1694470601.4520905,-4.39453125,-63.96484375,-44.921875,-4.8828125,0.0
1694470601.455994,12.6953125,-59.08203125,-34.1796875,25.87890625,0.0
1694470601.4598973,20.5078125,-69.3359375,-33.203125,29.296875,0.0
1694470601.4638228,27.83203125,-73.2421875,-40.52734375,19.04296875,0.0
1694470601.4677262,33.203125,-74.21875,-41.50390625,16.6015625,0.0
1694470601.4716296,37.59765625,-84.47265625,-42.96875,30.76171875,0.0
1694470601.475533,37.109375,-83.0078125,-50.29296875,47.36328125,0.0
1694470601.4794364,44.43359375,-71.77734375,-53.7109375,46.875,0.0
1694470601.4833398,53.22265625,-67.87109375,-49.31640625,41.9921875,0.0
1694470601.4872434,50.29296875,-69.82421875,-55.17578125,50.78125,0.0
1694470601.4911468,57.12890625,-60.05859375,-55.17578125,53.7109375,0.0
1694470601.4950502,58.10546875,-59.08203125,-47.8515625,43.45703125,0.0
1694470601.4989536,44.921875,-66.40625,-49.31640625,41.015625,0.0
1694470601.502857,33.203125,-72.265625,-49.8046875,43.45703125,0.0
1694470601.5067604,26.85546875,-75.1953125,-49.31640625,51.26953125,0.0
1694470601.510682,41.9921875,-70.3125,-56.15234375,45.41015625,0.0
1694470601.5145855,46.875,-68.84765625,-57.12890625,32.71484375,0.0
1694470601.518489,43.45703125,-70.80078125,-56.640625,38.57421875,0.0
1694470601.5223923,45.8984375,-69.82421875,-50.29296875,57.6171875,0.0
1694470601.5262957,35.15625,-70.80078125,-46.38671875,58.10546875,0.0
1694470601.5301993,34.66796875,-71.2890625,-49.31640625,45.8984375,0.0
1694470601.5341027,37.109375,-59.08203125,-49.31640625,41.9921875,0.0
1694470601.538006,36.62109375,-50.29296875,-44.921875,49.8046875,0.0
1694470601.5419095,41.50390625,-49.8046875,-39.55078125,59.5703125,0.0
1694470601.5458128,40.52734375,-52.734375,-44.921875,45.41015625,0.0
1694470601.5497162,31.73828125,-56.15234375,-47.36328125,38.0859375,0.0
1694470601.5536196,36.1328125,-55.6640625,-46.38671875,47.36328125,0.0
1694470601.5575585,38.57421875,-52.24609375,-47.8515625,51.7578125,0.0
1694470601.561462,30.2734375,-54.6875,-51.7578125,43.9453125,0.0
1694470601.5653653,24.90234375,-56.640625,-51.7578125,22.94921875,0.0
1694470601.5692687,24.90234375,-57.12890625,-44.921875,20.99609375,0.0
1694470601.573172,36.1328125,-60.05859375,-43.9453125,31.25,0.0
1694470601.5770757,43.9453125,-56.640625,-43.45703125,27.83203125,0.0
1694470601.580979,27.34375,-55.6640625,-38.57421875,23.92578125,0.0
1694470601.5848825,8.7890625,-53.7109375,-39.0625,20.99609375,0.0
1694470601.588786,10.7421875,-50.78125,-39.55078125,33.203125,0.0
1694470601.5926893,7.32421875,-54.19921875,-41.015625,29.78515625,0.0
1694470601.5965927,5.37109375,-56.640625,-48.828125,12.6953125,0.0
1694470601.600496,0.9765625,-49.31640625,-55.6640625,9.765625,0.0
1694470601.6044366,15.625,-47.36328125,-53.7109375,24.4140625,0.0
1694470601.60834,26.85546875,-47.36328125,-49.31640625,29.296875,0.0
1694470601.6122434,6.34765625,-40.0390625,-50.78125,6.34765625,0.0
1694470601.6161468,-9.765625,-40.52734375,-54.19921875,-15.625,0.0
1694470601.6200504,1.953125,-44.43359375,-49.31640625,5.859375,0.0
1694470601.6239538,12.20703125,-42.48046875,-48.828125,20.5078125,0.0
1694470601.6278572,8.30078125,-40.0390625,-51.7578125,5.37109375,0.0
1694470601.6317606,9.765625,-43.9453125,-46.875,-3.41796875,0.0
1694470601.635664,9.765625,-44.921875,-41.50390625,14.16015625,0.0
1694470601.6395674,8.30078125,-43.9453125,-40.0390625,25.87890625,0.0
1694470601.6434708,15.13671875,-41.9921875,-37.59765625,11.71875,0.0
1694470601.6473742,5.37109375,-48.828125,-41.015625,-5.859375,0.0
1694470601.6513112,-9.27734375,-51.26953125,-43.45703125,-7.8125,0.0
1694470601.6552145,6.34765625,-45.8984375,-42.48046875,4.39453125,0.0
1694470601.659118,23.92578125,-41.9921875,-36.62109375,0.48828125,0.0
1694470601.6630213,28.80859375,-38.57421875,-31.73828125,-11.71875,0.0
1694470601.6669247,5.859375,-43.9453125,-33.203125,-16.11328125,0.0
1694470601.670828,-13.18359375,-49.31640625,-31.25,4.8828125,0.0
1694470601.6747317,-15.13671875,-45.8984375,-33.203125,9.765625,0.0
1694470601.6786351,-19.04296875,-46.875,-34.66796875,-3.41796875,0.0
1694470601.6825385,-26.85546875,-48.828125,-32.71484375,-10.7421875,0.0
1694470601.686442,-22.94921875,-39.0625,-31.73828125,-3.41796875,0.0
1694470601.6903453,-13.18359375,-36.62109375,-30.76171875,5.859375,0.0
1694470601.6942487,-12.6953125,-40.52734375,-33.203125,-6.34765625,0.0
1694470601.6981816,-21.97265625,-40.52734375,-39.0625,-17.08984375,0.0
1694470601.702085,-25.390625,-41.50390625,-44.921875,-17.578125,0.0
1694470601.7059884,-13.18359375,-41.50390625,-45.41015625,4.39453125,0.0
1694470601.7098918,0.9765625,-32.71484375,-34.1796875,11.71875,0.0
1694470601.7137952,2.9296875,-28.80859375,-32.71484375,-4.39453125,0.0
1694470601.7176988,-7.32421875,-35.15625,-39.55078125,-7.8125,0.0
1694470601.7216022,-12.20703125,-38.57421875,-40.52734375,-2.9296875,0.0
1694470601.7255056,-3.41796875,-39.0625,-40.52734375,0.9765625,0.0
1694470601.729409,2.9296875,-33.69140625,-35.64453125,-5.859375,0.0
1694470601.7333124,-24.4140625,-27.83203125,-36.62109375,-19.53125,0.0
1694470601.7372158,-30.76171875,-24.4140625,-38.57421875,-7.32421875,0.0
1694470601.7411191,-10.25390625,-24.90234375,-35.15625,4.39453125,0.0
1694470601.745048,-6.8359375,-31.25,-37.109375,-6.8359375,0.0
1694470601.7489514,-14.6484375,-28.80859375,-33.203125,-20.01953125,0.0
1694470601.7528548,-17.08984375,-28.3203125,-33.203125,-14.6484375,0.0
1694470601.7567582,-9.27734375,-25.390625,-36.62109375,-6.8359375,0.0
1694470601.7606616,-5.37109375,-22.94921875,-32.2265625,-9.765625,0.0
1694470601.7645652,-12.20703125,-26.3671875,-27.83203125,-19.53125,0.0
1694470601.7684686,-10.7421875,-27.34375,-28.80859375,-20.5078125,0.0
1694470601.772372,-9.765625,-31.25,-26.85546875,-0.9765625,0.0
1694470601.7762754,-11.71875,-30.2734375,-24.4140625,-10.25390625,0.0
1694470601.7801788,-26.85546875,-24.4140625,-26.85546875,-22.94921875,0.0
1694470601.7840822,-39.0625,-31.25,-34.66796875,-23.92578125,0.0
1694470601.7879856,-25.390625,-36.1328125,-40.0390625,-21.97265625,0.0
1694470601.7919111,-20.5078125,-25.87890625,-41.9921875,-11.71875,0.0
1694470601.7958145,-23.4375,-22.94921875,-34.66796875,-15.13671875,0.0
1694470601.799718,-37.109375,-28.80859375,-28.3203125,-30.76171875,0.0
1694470601.8036213,-30.2734375,-29.78515625,-27.83203125,-20.5078125,0.0
1694470601.8075247,-25.87890625,-27.83203125,-29.78515625,-7.32421875,0.0
1694470601.811428,-27.83203125,-32.2265625,-34.1796875,-20.01953125,0.0
1694470601.8153315,-23.4375,-33.203125,-35.64453125,-26.85546875,0.0
1694470601.8192348,-21.484375,-26.3671875,-38.0859375,-23.4375,0.0
1694470601.8231382,-7.8125,-24.90234375,-37.109375,-10.7421875,0.0
1694470601.8270419,-14.6484375,-27.83203125,-30.2734375,-3.90625,0.0
1694470601.8309453,-28.3203125,-30.2734375,-32.2265625,-18.06640625,0.0
1694470601.8348486,-18.06640625,-28.80859375,-33.69140625,-28.80859375,0.0
1694470601.8387756,3.41796875,-21.97265625,-26.3671875,-13.671875,0.0
1694470601.842679,-5.859375,-21.97265625,-34.66796875,-12.20703125,0.0
1694470601.8465824,-25.390625,-25.390625,-42.96875,-25.390625,0.0
1694470601.850486,-31.25,-29.78515625,-40.0390625,-34.66796875,0.0
1694470601.8543894,-29.78515625,-29.296875,-35.15625,-24.90234375,0.0
1694470601.8582928,-23.92578125,-33.69140625,-38.57421875,-18.5546875,0.0
1694470601.8621962,-23.92578125,-39.55078125,-42.48046875,-31.25,0.0
1694470601.8660996,-33.69140625,-33.69140625,-39.0625,-39.0625,0.0
1694470601.870003,-20.01953125,-33.203125,-38.0859375,-31.25,0.0
1694470601.8739064,-10.25390625,-36.1328125,-38.0859375,-22.4609375,0.0
1694470601.8778098,-22.94921875,-40.0390625,-39.0625,-22.94921875,0.0
1694470601.8817134,-14.6484375,-30.2734375,-41.015625,-30.76171875,0.0
1694470601.8856578,-9.27734375,-25.87890625,-38.0859375,-32.71484375,0.0
1694470601.8895612,-10.7421875,-32.2265625,-34.1796875,-15.625,0.0
1694470601.8934646,-23.92578125,-32.71484375,-38.0859375,-14.16015625,0.0
1694470601.897368,-35.15625,-37.109375,-43.45703125,-25.87890625,0.0
1694470601.9012713,-31.25,-34.1796875,-41.015625,-28.3203125,0.0
1694470601.9051747,-23.92578125,-36.62109375,-38.0859375,-10.25390625,0.0
1694470601.9090781,-17.08984375,-38.57421875,-38.0859375,-5.859375,0.0
1694470601.9129817,-30.2734375,-29.78515625,-40.52734375,-32.2265625,0.0
1694470601.9168851,-43.9453125,-23.92578125,-38.0859375,-42.48046875,0.0
1694470601.9207885,-42.96875,-32.71484375,-43.45703125,-30.76171875,0.0
1694470601.924692,-31.25,-39.55078125,-39.55078125,-20.99609375,0.0
1694470601.9285953,-33.69140625,-33.69140625,-37.59765625,-33.69140625,0.0
1694470601.9325356,-45.8984375,-32.71484375,-35.64453125,-43.9453125,0.0
1694470601.936439,-36.1328125,-32.2265625,-28.80859375,-27.34375,0.0
1694470601.9403424,-26.85546875,-36.1328125,-33.203125,-16.6015625,0.0
1694470601.9442458,-26.85546875,-41.50390625,-40.0390625,-23.92578125,0.0
1694470601.9481492,-27.34375,-36.62109375,-36.62109375,-32.2265625,0.0
1694470601.9520526,-24.90234375,-36.1328125,-36.1328125,-28.3203125,0.0
1694470601.9559562,-15.625,-34.1796875,-34.66796875,-6.8359375,0.0
1694470601.9598596,-6.34765625,-27.83203125,-27.34375,-9.27734375,0.0
1694470601.963763,-22.4609375,-30.2734375,-27.34375,-25.390625,0.0
1694470601.9676664,-34.66796875,-36.1328125,-31.25,-27.83203125,0.0
1694470601.9715698,-20.01953125,-30.76171875,-30.2734375,-16.11328125,0.0
1694470601.9754732,-24.90234375,-20.99609375,-25.390625,-18.06640625,0.0
1694470601.9794095,-47.36328125,-23.4375,-29.78515625,-35.15625,0.0
1694470601.9833128,-43.9453125,-24.4140625,-31.73828125,-38.57421875,0.0
1694470601.9872162,-19.04296875,-19.53125,-29.78515625,-21.484375,0.0
1694470601.9911196,-19.04296875,-20.01953125,-32.71484375,-19.04296875,0.0
1694470601.9950233,-24.4140625,-21.97265625,-35.15625,-30.76171875,0.0
1694470601.9989266,-40.0390625,-24.90234375,-29.78515625,-31.73828125,0.0
1694470602.00283,-51.7578125,-25.390625,-29.296875,-23.92578125,0.0
1694470602.0067334,-34.66796875,-24.4140625,-28.80859375,-10.25390625,0.0
1694470602.0106368,-25.87890625,-28.3203125,-29.296875,-16.11328125,0.0
1694470602.0145402,-26.85546875,-31.73828125,-34.1796875,-33.203125,0.0
1694470602.0184436,-39.0625,-31.25,-30.76171875,-30.76171875,0.0
1694470602.022347,-34.1796875,-32.2265625,-34.66796875,-12.6953125,0.0
1694470602.02628,-19.04296875,-31.73828125,-41.50390625,-23.92578125,0.0
1694470602.0301833,-34.1796875,-31.73828125,-36.1328125,-45.41015625,0.0
1694470602.0340867,-47.8515625,-37.59765625,-25.390625,-38.0859375,0.0
1694470602.0379903,-33.203125,-40.52734375,-32.71484375,-20.5078125,0.0
1694470602.0418937,-28.80859375,-34.66796875,-36.62109375,-21.97265625,0.0
1694470602.045797,-35.15625,-30.2734375,-30.2734375,-41.015625,0.0
1694470602.0497005,-40.52734375,-37.109375,-35.15625,-53.7109375,0.0
1694470602.053604,-32.2265625,-35.15625,-40.52734375,-41.015625,0.0
1694470602.0575073,-23.92578125,-34.1796875,-38.0859375,-26.3671875,0.0
1694470602.0614107,-33.203125,-39.55078125,-39.0625,-35.64453125,0.0
1694470602.0653143,-37.59765625,-35.64453125,-45.41015625,-43.9453125,0.0
1694470602.0692177,-36.1328125,-35.64453125,-40.0390625,-30.2734375,0.0
1694470602.0731516,-31.25,-38.57421875,-34.66796875,-10.7421875,0.0
1694470602.077055,-24.90234375,-40.52734375,-37.109375,-18.06640625,0.0
1694470602.0809586,-31.73828125,-41.015625,-36.1328125,-36.62109375,0.0
1694470602.084862,-29.296875,-39.0625,-30.76171875,-37.109375,0.0
1694470602.0887654,-17.578125,-39.0625,-27.34375,-20.01953125,0.0
1694470602.0926688,-33.203125,-38.0859375,-26.3671875,-14.16015625,0.0
1694470602.0965722,-41.9921875,-36.62109375,-34.1796875,-31.25,0.0
1694470602.1004755,-45.41015625,-41.50390625,-34.1796875,-37.109375,0.0
1694470602.1043792,-37.109375,-45.41015625,-27.34375,-23.92578125,0.0
1694470602.1082826,-21.484375,-37.109375,-30.2734375,-21.484375,0.0
1694470602.112186,-27.83203125,-32.2265625,-29.296875,-29.296875,0.0
1694470602.1160893,-34.66796875,-35.64453125,-27.34375,-34.1796875,0.0
1694470602.1200197,-32.71484375,-37.109375,-24.4140625,-28.80859375,0.0
1694470602.123923,-34.1796875,-41.9921875,-24.90234375,-20.99609375,0.0
1694470602.1278265,-27.83203125,-43.9453125,-32.71484375,-31.25,0.0
1694470602.1317298,-32.71484375,-37.59765625,-31.25,-43.45703125,0.0
1694470602.1356332,-46.38671875,-37.109375,-27.83203125,-30.76171875,0.0
1694470602.1395369,-35.15625,-36.1328125,-34.66796875,-20.01953125,0.0
1694470602.1434402,-30.2734375,-36.62109375,-29.78515625,-27.34375,0.0
1694470602.1473436,-30.76171875,-36.1328125,-20.5078125,-26.85546875,0.0
1694470602.151247,-41.9921875,-36.62109375,-25.390625,-30.2734375,0.0
1694470602.1551504,-36.62109375,-42.48046875,-33.69140625,-29.296875,0.0
1694470602.1590538,-27.83203125,-40.0390625,-32.71484375,-31.25,0.0
1694470602.1629574,-41.50390625,-34.66796875,-34.1796875,-53.22265625,0.0
1694470602.1669052,-43.45703125,-34.66796875,-33.69140625,-53.22265625,0.0
1694470602.1708086,-30.2734375,-33.203125,-33.203125,-28.80859375,0.0
1694470602.174712,-24.4140625,-33.203125,-28.80859375,-23.4375,0.0
1694470602.1786156,-22.94921875,-36.1328125,-25.390625,-41.50390625,0.0
1694470602.182519,-20.01953125,-38.57421875,-29.78515625,-45.8984375,0.0
1694470602.1864223,-31.73828125,-38.57421875,-32.2265625,-29.296875,0.0
1694470602.1903257,-38.0859375,-38.57421875,-33.69140625,-21.484375,0.0
1694470602.1942291,-20.5078125,-40.0390625,-32.71484375,-31.73828125,0.0
1694470602.1981325,-37.59765625,-38.57421875,-33.69140625,-51.26953125,0.0
1694470602.2020361,-63.96484375,-42.48046875,-38.0859375,-41.50390625,0.0
1694470602.2059395,-52.734375,-45.41015625,-40.0390625,-24.90234375,0.0
1694470602.209843,-52.734375,-43.9453125,-32.71484375,-32.71484375,0.0
1694470602.2137659,-55.6640625,-42.96875,-28.80859375,-48.828125,0.0
1694470602.2176692,-59.5703125,-41.9921875,-32.2265625,-49.31640625,0.0
1694470602.2215726,-48.33984375,-39.55078125,-28.3203125,-28.3203125,0.0
1694470602.225476,-34.66796875,-41.9921875,-23.4375,-29.296875,0.0
1694470602.2293797,-47.36328125,-42.48046875,-28.3203125,-46.38671875,0.0
1694470602.233283,-52.24609375,-39.55078125,-32.2265625,-43.9453125,0.0
1694470602.2371864,-38.57421875,-38.57421875,-30.2734375,-31.25,0.0
1694470602.2410898,-33.203125,-39.0625,-25.390625,-30.76171875,0.0
1694470602.2449932,-34.1796875,-32.2265625,-25.390625,-33.203125,0.0
1694470602.2488966,-23.92578125,-24.4140625,-24.90234375,-29.78515625,0.0
1694470602.2528002,-23.4375,-26.3671875,-20.99609375,-19.53125,0.0
1694470602.2567036,-19.04296875,-27.83203125,-20.99609375,-13.18359375,0.0
1694470602.260628,-11.23046875,-27.34375,-26.3671875,-29.296875,0.0
1694470602.2645314,-25.87890625,-29.296875,-28.80859375,-43.9453125,0.0
1694470602.2684348,-31.73828125,-29.78515625,-25.87890625,-39.55078125,0.0
1694470602.2723382,-27.34375,-30.76171875,-21.97265625,-26.85546875,0.0
1694470602.2762415,-33.203125,-35.15625,-19.53125,-31.73828125,0.0
1694470602.2801452,-37.109375,-39.0625,-23.4375,-44.921875,0.0
1694470602.2840486,-28.3203125,-37.109375,-26.85546875,-41.015625,0.0
1694470602.287952,-20.01953125,-36.62109375,-29.296875,-20.99609375,0.0
1694470602.2918553,-26.85546875,-41.9921875,-32.71484375,-20.5078125,0.0
1694470602.2957587,-44.43359375,-44.43359375,-34.1796875,-38.0859375,0.0
1694470602.299662,-48.828125,-43.9453125,-34.66796875,-39.0625,0.0
1694470602.3035657,-28.80859375,-40.52734375,-36.62109375,-28.80859375,0.0
1694470602.3075068,-24.90234375,-39.55078125,-35.64453125,-26.3671875,0.0
1694470602.3114102,-35.64453125,-42.48046875,-32.2265625,-34.66796875,0.0
1694470602.3153136,-39.0625,-37.59765625,-31.25,-43.9453125,0.0
1694470602.3192172,-34.66796875,-31.73828125,-30.76171875,-41.50390625,0.0
1694470602.3231206,-21.484375,-33.69140625,-28.3203125,-24.4140625,0.0
1694470602.327024,-21.484375,-37.59765625,-31.25,-24.4140625,0.0
1694470602.3309274,-27.83203125,-31.73828125,-34.1796875,-31.25,0.0
1694470602.3348308,-39.55078125,-29.78515625,-26.85546875,-26.3671875,0.0
1694470602.3387341,-32.2265625,-34.66796875,-32.2265625,-17.08984375,0.0
1694470602.3426378,-24.90234375,-37.109375,-38.57421875,-22.4609375,0.0
1694470602.3465412,-33.203125,-33.203125,-34.66796875,-38.0859375,0.0
1694470602.3504446,-31.73828125,-32.71484375,-31.25,-29.296875,0.0
1694470602.3543823,-11.71875,-33.69140625,-30.76171875,-12.6953125,0.0
1694470602.3582857,-15.13671875,-35.64453125,-30.2734375,-18.06640625,0.0
1694470602.362189,-40.52734375,-38.0859375,-31.73828125,-44.43359375,0.0
1694470602.3660927,-43.9453125,-40.0390625,-33.69140625,-53.22265625,0.0
1694470602.369996,-40.52734375,-38.57421875,-28.3203125,-26.3671875,0.0
1694470602.3738995,-34.66796875,-36.62109375,-31.25,-16.6015625,0.0
1694470602.3778028,-34.66796875,-39.0625,-35.64453125,-34.1796875,0.0
1694470602.3817062,-39.55078125,-34.66796875,-30.76171875,-44.921875,0.0
1694470602.3856099,-33.69140625,-32.2265625,-33.203125,-37.59765625,0.0
1694470602.3895133,-32.71484375,-35.15625,-38.0859375,-25.390625,0.0
1694470602.3934166,-36.62109375,-32.2265625,-35.64453125,-29.78515625,0.0
