time,TP9,AF7,AF8,TP10,Right AUX
1695232836.090843,-330.56640625,-274.4140625,249.51171875,-1000.0,0.0
1695232836.0947409,-1000.0,-891.11328125,221.6796875,-250.9765625,0.0
1695232836.098639,-124.51171875,-309.5703125,248.53515625,-807.12890625,0.0
1695232836.102537,-804.19921875,401.85546875,273.92578125,255.859375,0.0
1695232836.1064348,194.82421875,-39.0625,252.44140625,-1000.0,0.0
1695232836.110333,-1000.0,-829.58984375,271.97265625,-452.1484375,0.0
1695232836.1142309,-277.83203125,-565.4296875,265.625,-912.59765625,0.0
1695232836.1181288,-812.98828125,227.5390625,317.3828125,692.3828125,0.0
1695232836.122027,340.33203125,157.2265625,286.1328125,-866.69921875,0.0
1695232836.1259248,-1000.0,-626.953125,212.890625,-1000.0,0.0
1695232836.1298227,-660.64453125,-727.5390625,212.890625,476.5625,0.0
1695232836.1337209,968.75,31.73828125,280.76171875,-883.30078125,0.0
1695232836.1377106,706.54296875,320.80078125,223.14453125,-290.0390625,0.0
1695232836.1416087,-836.9140625,-419.43359375,228.02734375,-1000.0,0.0
1695232836.1455066,-1000.0,-845.21484375,219.23828125,-72.75390625,0.0
1695232836.1494045,228.515625,-156.73828125,265.13671875,-789.0625,0.0
1695232836.1533027,-814.94140625,419.921875,219.23828125,197.75390625,0.0
1695232836.1572006,-83.984375,-210.44921875,241.69921875,-1000.0,0.0
1695232836.1610987,-1000.0,-911.62109375,243.1640625,-263.18359375,0.0
1695232836.1649966,-218.26171875,-418.45703125,305.6640625,-805.17578125,0.0
1695232836.1688945,-812.5,354.00390625,292.96875,316.89453125,0.0
1695232836.1727927,224.12109375,35.64453125,195.80078125,-1000.0,0.0
1695232836.1766906,-1000.0,-777.83203125,241.69921875,-580.078125,0.0
1695232836.1805885,-344.7265625,-620.60546875,233.88671875,-985.83984375,0.0
1695232836.184581,-838.8671875,182.6171875,260.7421875,756.8359375,0.0
1695232836.188479,442.87109375,229.4921875,213.37890625,-804.6875,0.0
1695232836.192377,-1000.0,-562.98828125,246.09375,-1000.0,0.0
1695232836.196275,-795.8984375,-759.765625,229.98046875,360.83984375,0.0
1695232836.2001731,778.3203125,-18.06640625,263.18359375,-857.421875,0.0
1695232836.204071,919.921875,355.46875,241.2109375,-137.6953125,0.0
1695232836.207969,-566.89453125,-366.69921875,287.109375,-1000.0,0.0
1695232836.211867,-1000.0,-896.484375,263.18359375,-147.94921875,0.0
1695232836.215765,66.40625,-220.703125,252.9296875,-791.9921875,0.0
1695232836.2196631,-789.0625,441.40625,226.07421875,226.5625,0.0
1695232836.223561,71.2890625,-126.46484375,231.4453125,-1000.0,0.0
1695232836.227459,-1000.0,-879.8828125,237.3046875,-337.40234375,0.0
1695232836.231434,-250.48828125,-457.51953125,232.421875,-834.9609375,0.0
1695232836.235332,-795.8984375,337.890625,261.23046875,449.70703125,0.0
1695232836.2392302,204.1015625,92.7734375,222.16796875,-1000.0,0.0
1695232836.243128,-1000.0,-672.36328125,230.46875,-712.890625,0.0
1695232836.2470262,-284.66796875,-603.515625,245.60546875,887.20703125,0.0
1695232836.250924,-912.109375,118.1640625,296.875,959.9609375,0.0
1695232836.254822,546.875,260.25390625,247.55859375,-524.4140625,0.0
1695232836.2587202,-1000.0,-509.27734375,272.4609375,-1000.0,0.0
1695232836.262618,-925.78125,-798.828125,235.83984375,131.8359375,0.0
1695232836.2665162,580.078125,-69.82421875,264.6484375,-776.85546875,0.0
1695232836.270414,-917.96875,387.20703125,227.05078125,114.74609375,0.0
1695232836.2743123,-323.2421875,-300.78125,216.30859375,-1000.0,0.0
1695232836.2783,-1000.0,-894.53125,192.3828125,-252.9296875,0.0
1695232836.282198,-101.5625,-293.45703125,271.484375,-805.17578125,0.0
1695232836.2860959,-799.31640625,427.734375,266.11328125,240.72265625,0.0
1695232836.289994,181.15234375,-36.62109375,203.61328125,-1000.0,0.0
1695232836.293892,-1000.0,-828.125,223.6328125,-437.01171875,0.0
1695232836.29779,-257.8125,-535.64453125,285.15625,-882.8125,0.0
1695232836.301688,-807.6171875,255.37109375,302.734375,565.91796875,0.0
1695232836.305586,271.97265625,158.69140625,216.796875,-1000.0,0.0
1695232836.309484,-1000.0,-649.4140625,217.7734375,-916.9921875,0.0
1695232836.3133821,-601.5625,-725.5859375,234.375,608.88671875,0.0
1695232836.31728,-994.140625,41.015625,297.8515625,-929.19921875,0.0
1695232836.3211782,692.3828125,298.828125,204.58984375,-362.79296875,0.0
1695232836.3251896,-854.4921875,-458.0078125,236.328125,-1000.0,0.0
1695232836.3290875,-1000.0,-871.58203125,216.796875,-35.15625,0.0
1695232836.3329854,279.296875,-151.3671875,265.625,-785.64453125,0.0
1695232836.3368835,-824.21875,421.38671875,227.05078125,180.6640625,0.0
1695232836.3407815,-134.27734375,-228.515625,228.02734375,-1000.0,0.0
1695232836.3446796,-1000.0,-901.3671875,245.1171875,-260.25390625,0.0
1695232836.3485775,-197.265625,-358.3984375,284.66796875,-802.24609375,0.0
1695232836.3524756,-811.03515625,405.76171875,261.71875,286.1328125,0.0
1695232836.3563735,210.44921875,29.296875,220.21484375,-1000.0,0.0
1695232836.3602717,-1000.0,-786.1328125,252.9296875,-480.46875,0.0
1695232836.3641696,-311.5234375,-595.703125,265.13671875,-919.921875,0.0
1695232836.3680677,-826.171875,205.078125,279.296875,686.5234375,0.0
1695232836.3720725,393.5546875,203.125,214.35546875,-847.65625,0.0
1695232836.3759704,-1000.0,-596.6796875,229.98046875,-1000.0,0.0
1695232836.3798685,-750.48828125,-763.671875,204.58984375,322.265625,0.0
1695232836.3837664,869.62890625,5.37109375,269.04296875,-817.87109375,0.0
1695232836.3876646,816.89453125,312.5,237.79296875,-129.39453125,0.0
1695232836.3915625,-738.76953125,-433.59375,265.625,-1000.0,0.0
1695232836.3954606,-1000.0,-855.95703125,221.6796875,-125.48828125,0.0
1695232836.3993585,162.109375,-173.828125,233.88671875,-790.52734375,0.0
1695232836.4032567,-802.734375,432.12890625,290.52734375,219.7265625,0.0
1695232836.4071546,-20.01953125,-164.0625,299.8046875,-1000.0,0.0
1695232836.4110527,-1000.0,-863.76953125,200.1953125,-304.6875,0.0
1695232836.4149506,-237.3046875,-411.1328125,226.07421875,-819.82421875,0.0
1695232836.4189472,-814.94140625,353.515625,248.53515625,430.17578125,0.0
1695232836.4228454,238.28125,77.63671875,218.26171875,-1000.0,0.0
1695232836.4267433,-1000.0,-720.703125,212.40234375,-711.42578125,0.0
1695232836.4306414,-422.8515625,-629.8828125,203.61328125,887.20703125,0.0
1695232836.4345393,-872.55859375,146.484375,273.4375,880.37109375,0.0
1695232836.4384375,490.72265625,248.53515625,238.76953125,-646.484375,0.0
1695232836.4423354,-1000.0,-527.83203125,253.90625,-1000.0,0.0
1695232836.4462335,-879.39453125,-784.66796875,210.44921875,206.0546875,0.0
1695232836.4501314,659.66796875,-61.03515625,322.265625,-791.9921875,0.0
1695232836.4540296,-997.55859375,369.62890625,234.86328125,-11.23046875,0.0
1695232836.4579275,-448.73046875,-322.265625,176.26953125,-1000.0,0.0
1695232836.4618256,-1000.0,-897.94921875,213.8671875,-226.5625,0.0
1695232836.4658155,-48.828125,-269.53125,263.18359375,-808.10546875,0.0
1695232836.4697134,-797.8515625,428.22265625,237.3046875,238.76953125,0.0
1695232836.4736116,128.41796875,-83.0078125,198.73046875,-1000.0,0.0
1695232836.4775095,-1000.0,-862.79296875,242.67578125,-377.44140625,0.0
1695232836.4814076,-251.46484375,-514.16015625,270.5078125,-854.4921875,0.0
1695232836.4853058,-809.5703125,280.2734375,268.06640625,533.203125,0.0
1695232836.4892037,257.8125,127.9296875,221.19140625,-1000.0,0.0
1695232836.4931018,-1000.0,-676.7578125,288.57421875,-736.328125,0.0
1695232836.4969997,-533.69140625,-700.1953125,292.96875,841.796875,0.0
1695232836.500898,-941.40625,95.703125,259.27734375,993.1640625,0.0
1695232836.5047958,644.04296875,320.3125,184.5703125,-443.84765625,0.0
1695232836.508694,-915.0390625,-446.2890625,210.9375,-1000.0,0.0
1695232836.512685,-1000.0,-813.96484375,218.75,23.4375,0.0
1695232836.5165832,395.99609375,-87.40234375,251.953125,-783.203125,0.0
1695232836.5204813,-864.2578125,431.640625,230.46875,140.13671875,0.0
1695232836.5243793,-266.11328125,-270.99609375,225.09765625,-1000.0,0.0
1695232836.5282774,-1000.0,-883.30078125,209.47265625,-255.37109375,0.0
1695232836.5321753,-63.96484375,-303.7109375,292.48046875,-806.15234375,0.0
1695232836.5360734,-817.3828125,388.18359375,272.94921875,262.6953125,0.0
1695232836.5399716,196.2890625,-31.25,282.71484375,-1000.0,0.0
1695232836.5438695,-1000.0,-813.96484375,264.16015625,-495.60546875,0.0
1695232836.5477676,-281.25,-545.41015625,187.98828125,-925.78125,0.0
1695232836.5516655,-814.94140625,242.1875,280.76171875,671.38671875,0.0
1695232836.5555637,359.375,198.2421875,241.69921875,-901.3671875,0.0
1695232836.5595477,-1000.0,-576.66015625,219.23828125,-1000.0,0.0
1695232836.5634456,-667.48046875,-695.80078125,201.171875,449.21875,0.0
1695232836.5673437,938.4765625,47.8515625,276.85546875,-839.84375,0.0
1695232836.5712419,809.08203125,351.07421875,216.796875,-183.10546875,0.0
1695232836.5751398,-721.6796875,-389.6484375,216.796875,-1000.0,0.0
1695232836.579038,-1000.0,-856.4453125,234.375,-94.23828125,0.0
1695232836.5829358,205.56640625,-174.8046875,317.87109375,-785.64453125,0.0
1695232836.586834,-807.12890625,416.9921875,283.203125,218.75,0.0
1695232836.590732,-64.94140625,-194.3359375,205.56640625,-1000.0,0.0
1695232836.59463,-1000.0,-907.71484375,220.703125,-269.04296875,0.0
1695232836.5985281,-221.19140625,-420.8984375,280.76171875,-805.17578125,0.0
1695232836.6024263,-812.5,365.72265625,248.046875,321.77734375,0.0
1695232836.6064036,232.91015625,61.03515625,191.89453125,-1000.0,0.0
1695232836.6103015,-1000.0,-743.1640625,231.93359375,-629.8828125,0.0
1695232836.6141996,-375.48828125,-619.62890625,232.91015625,964.35546875,0.0
1695232836.6180975,-850.5859375,179.6875,262.6953125,798.828125,0.0
1695232836.6219957,455.078125,256.8359375,224.12109375,-753.41796875,0.0
1695232836.6258938,-1000.0,-537.59765625,246.09375,-1000.0,0.0
1695232836.6297917,-823.2421875,-780.76171875,270.5078125,270.99609375,0.0
1695232836.6336899,750.9765625,-37.59765625,317.3828125,-801.7578125,0.0
1695232836.637588,942.87109375,376.46484375,190.4296875,-67.87109375,0.0
1695232836.641486,-548.33984375,-354.98046875,227.05078125,-1000.0,0.0
1695232836.645384,-1000.0,-905.76171875,217.7734375,-175.29296875,0.0
1695232836.6492822,37.59765625,-253.41796875,254.8828125,-799.31640625,0.0
1695232836.6532512,-790.52734375,413.57421875,250.9765625,231.93359375,0.0
1695232836.657149,91.796875,-125.48828125,224.609375,-1000.0,0.0
1695232836.6610472,-1000.0,-875.0,224.609375,-348.6328125,0.0
1695232836.6649454,-248.53515625,-470.21484375,208.984375,-838.8671875,0.0
1695232836.6688433,-810.05859375,329.58984375,236.81640625,465.33203125,0.0
1695232836.6727414,247.0703125,116.69921875,252.44140625,-1000.0,0.0
1695232836.6766396,-1000.0,-695.3125,267.578125,-771.97265625,0.0
1695232836.6805375,-492.1875,-653.80859375,198.2421875,809.08203125,0.0
1695232836.6844356,-906.25,125.48828125,250.9765625,949.21875,0.0
1695232836.6883337,547.8515625,278.3203125,244.62890625,-541.50390625,0.0
1695232836.6922317,-1000.0,-488.28125,250.0,-1000.0,0.0
1695232836.6961298,-980.95703125,-800.29296875,196.2890625,71.77734375,0.0
1695232836.7001326,476.5625,-80.56640625,260.7421875,-781.73828125,0.0
1695232836.7040308,-877.9296875,407.2265625,216.796875,113.28125,0.0
1695232836.707929,-262.20703125,-278.80859375,236.81640625,-1000.0,0.0
1695232836.7118268,-1000.0,-891.6015625,225.5859375,-252.9296875,0.0
1695232836.715725,-106.93359375,-290.0390625,245.1171875,-803.7109375,0.0
1695232836.719623,-796.875,423.828125,270.5078125,261.23046875,0.0
1695232836.723521,185.546875,-34.66796875,245.60546875,-1000.0,0.0
1695232836.7274191,-1000.0,-817.87109375,224.12109375,-403.80859375,0.0
1695232836.7313173,-265.625,-530.76171875,236.81640625,-874.0234375,0.0
1695232836.7352154,-809.5703125,248.046875,295.8984375,610.83984375,0.0
1695232836.7391133,335.44921875,165.52734375,228.02734375,-956.0546875,0.0
1695232836.7430115,-1000.0,-616.69921875,214.35546875,-954.58984375,0.0
1695232836.7470171,-668.45703125,-715.8203125,219.7265625,556.640625,0.0
1695232836.7509153,952.63671875,37.59765625,263.671875,-887.20703125,0.0
1695232836.7548134,755.37109375,324.21875,192.3828125,-289.55078125,0.0
1695232836.7587113,-805.6640625,-413.57421875,217.28515625,-1000.0,0.0
1695232836.7626095,-1000.0,-841.796875,242.67578125,-32.71484375,0.0
1695232836.7665076,289.0625,-144.04296875,306.640625,-780.76171875,0.0
1695232836.7704058,-835.44921875,428.7109375,268.5546875,189.453125,0.0
1695232836.7743037,-151.85546875,-203.125,214.35546875,-1000.0,0.0
1695232836.7782018,-1000.0,-892.578125,257.32421875,-263.18359375,0.0
1695232836.7821,-207.51953125,-387.20703125,329.58984375,-803.7109375,0.0
1695232836.785998,-814.453125,391.11328125,218.75,306.640625,0.0
1695232836.789896,222.16796875,41.015625,180.6640625,-1000.0,0.0
1695232836.793894,-1000.0,-774.4140625,223.6328125,-530.2734375,0.0
1695232836.797792,-334.47265625,-604.00390625,231.4453125,-949.70703125,0.0
1695232836.80169,-833.49609375,185.05859375,246.58203125,725.09765625,0.0
1695232836.8055882,397.94921875,205.078125,198.73046875,-836.42578125,0.0
1695232836.8094864,-1000.0,-579.58984375,252.44140625,-1000.0,0.0
1695232836.8133843,-779.78515625,-756.34765625,242.67578125,379.8828125,0.0
1695232836.8172824,807.6171875,-12.6953125,299.8046875,-810.05859375,0.0
1695232836.8211806,886.71875,352.05078125,233.88671875,-82.03125,0.0
1695232836.8250787,-622.55859375,-380.859375,276.3671875,-1000.0,0.0
1695232836.8289766,-1000.0,-885.7421875,226.5625,-167.96875,0.0
1695232836.8328748,77.63671875,-199.21875,220.703125,-796.38671875,0.0
1695232836.836773,-808.10546875,434.5703125,241.2109375,228.515625,0.0
1695232836.8407633,-17.578125,-152.34375,231.93359375,-1000.0,0.0
1695232836.8446615,-1000.0,-893.06640625,207.03125,-306.15234375,0.0
1695232836.8485596,-235.83984375,-459.47265625,217.7734375,-820.3125,0.0
1695232836.8524578,-816.89453125,315.4296875,278.80859375,435.546875,0.0
1695232836.856356,234.375,65.4296875,252.44140625,-1000.0,0.0
1695232836.8602538,-1000.0,-731.93359375,229.00390625,-651.3671875,0.0
1695232836.864152,-450.1953125,-666.50390625,229.4921875,899.4140625,0.0
1695232836.86805,-886.71875,104.4921875,325.68359375,985.83984375,0.0
1695232836.8719482,525.390625,233.88671875,280.76171875,-462.890625,0.0
1695232836.8758464,-1000.0,-506.34765625,211.9140625,-1000.0,0.0
1695232836.8797443,-946.2890625,-785.64453125,205.078125,161.1328125,0.0
1695232836.8836424,575.68359375,-62.98828125,289.0625,-780.2734375,0.0
1695232836.8876257,-983.88671875,397.94921875,210.9375,53.7109375,0.0
1695232836.8915238,-442.3828125,-302.734375,193.84765625,-1000.0,0.0
1695232836.8954217,-1000.0,-895.99609375,187.98828125,-231.93359375,0.0
1695232836.89932,-34.66796875,-272.94921875,245.1171875,-801.7578125,0.0
1695232836.903218,-859.86328125,384.27734375,249.0234375,235.83984375,0.0
1695232836.9071162,19.53125,-131.8359375,239.74609375,-1000.0,0.0
1695232836.9110143,-1000.0,-854.00390625,229.00390625,-344.7265625,0.0
1695232836.9149122,-250.0,-531.25,298.33984375,-843.75,0.0
1695232836.9188104,-813.96484375,263.18359375,296.38671875,542.96875,0.0
1695232836.9227085,270.99609375,147.4609375,170.41015625,-1000.0,0.0
1695232836.9266067,-1000.0,-651.85546875,225.09765625,-845.21484375,0.0
1695232836.9305048,-567.87109375,-688.4765625,225.09765625,698.73046875,0.0
1695232836.9344912,-957.51953125,81.54296875,249.51171875,-932.6171875,0.0
1695232836.9383893,637.20703125,304.6875,211.9140625,-356.4453125,0.0
1695232836.9422874,-910.15625,-457.51953125,262.20703125,-1000.0,0.0
1695232836.9461854,-1000.0,-840.33203125,211.9140625,29.296875,0.0
1695232836.9500835,334.9609375,-128.41796875,256.34765625,-774.90234375,0.0
1695232836.9539816,-874.0234375,405.76171875,249.0234375,173.33984375,0.0
1695232836.9578798,-243.65234375,-265.625,276.85546875,-1000.0,0.0
1695232836.961778,-1000.0,-927.24609375,258.7890625,-255.859375,0.0
1695232836.965676,-176.7578125,-354.00390625,241.2109375,-802.24609375,0.0
1695232836.9695742,-814.94140625,391.6015625,238.28125,270.01953125,0.0
1695232836.973472,186.5234375,-21.484375,232.91015625,-1000.0,0.0
1695232836.9773703,-1000.0,-813.96484375,224.12109375,-498.53515625,0.0
1695232836.9813495,-295.8984375,-578.61328125,193.359375,-930.6640625,0.0
1695232836.9852476,-821.77734375,214.84375,260.7421875,690.4296875,0.0
1695232836.9891458,340.8203125,176.7578125,211.42578125,-875.48828125,0.0
1695232836.9930437,-1000.0,-614.74609375,224.12109375,-1000.0,0.0
1695232836.9969418,-725.5859375,-753.41796875,243.65234375,426.26953125,0.0
1695232837.00084,892.08984375,-3.90625,296.875,-829.58984375,0.0
1695232837.004738,759.765625,301.7578125,279.296875,-148.4375,0.0
1695232837.0086362,-777.34375,-440.4296875,275.87890625,-1000.0,0.0
1695232837.0125344,-1000.0,-891.11328125,182.6171875,-110.3515625,0.0
1695232837.0164325,150.87890625,-213.8671875,274.90234375,-787.59765625,0.0
1695232837.0203304,-830.078125,391.11328125,252.44140625,213.8671875,0.0
1695232837.0242286,-102.5390625,-201.66015625,203.125,-1000.0,0.0
1695232837.0282016,-1000.0,-907.71484375,209.47265625,-282.71484375,0.0
1695232837.0320997,-229.4921875,-438.4765625,250.9765625,-811.5234375,0.0
1695232837.0359979,-819.3359375,336.9140625,249.0234375,373.53515625,0.0
1695232837.039896,224.609375,46.38671875,201.66015625,-1000.0,0.0
1695232837.043794,-1000.0,-752.44140625,219.23828125,-625.48828125,0.0
1695232837.047692,-391.6015625,-641.11328125,263.671875,962.40234375,0.0
1695232837.0515902,-857.421875,131.34765625,314.94140625,843.75,0.0
1695232837.0554883,421.38671875,218.26171875,213.8671875,-682.6171875,0.0
1695232837.0593865,-1000.0,-548.828125,218.26171875,-1000.0,0.0
1695232837.0632846,-891.11328125,-796.875,242.67578125,241.69921875,0.0
1695232837.0671828,662.59765625,-62.98828125,300.78125,-791.50390625,0.0
1695232837.071081,915.52734375,361.81640625,195.3125,-11.23046875,0.0
1695232837.0750854,-589.84375,-346.19140625,210.9375,-1000.0,0.0
1695232837.0789835,-1000.0,-896.97265625,224.12109375,-203.125,0.0
1695232837.0828817,10.25390625,-248.046875,272.4609375,-798.33984375,0.0
1695232837.0867798,-799.8046875,439.453125,231.93359375,231.4453125,0.0
1695232837.090678,65.4296875,-93.75,214.35546875,-1000.0,0.0
1695232837.0945761,-1000.0,-872.0703125,251.46484375,-303.7109375,0.0
1695232837.0984743,-243.65234375,-500.48828125,269.53125,-823.73046875,0.0
1695232837.1023724,-814.94140625,300.78125,265.13671875,490.72265625,0.0
1695232837.1062706,238.28125,110.83984375,221.19140625,-1000.0,0.0
1695232837.1101687,-1000.0,-720.703125,274.90234375,-768.5546875,0.0
1695232837.1140668,-549.8046875,-716.796875,244.140625,802.24609375,0.0
1695232837.117965,-940.91796875,71.77734375,257.8125,994.62890625,0.0
1695232837.121965,552.734375,251.46484375,229.4921875,-465.8203125,0.0
1695232837.125863,-994.140625,-520.01953125,243.1640625,-1000.0,0.0
1695232837.1297612,-1000.0,-849.609375,192.3828125,75.1953125,0.0
1695232837.1336594,447.75390625,-114.74609375,255.859375,-777.83203125,0.0
1695232837.1375575,-944.3359375,383.7890625,245.1171875,118.1640625,0.0
1695232837.1414554,-372.55859375,-313.4765625,251.953125,-1000.0,0.0
1695232837.1453536,-1000.0,-929.6875,232.421875,-247.55859375,0.0
1695232837.1492517,-136.71875,-322.265625,232.421875,-804.19921875,0.0
1695232837.1531498,-815.91796875,392.578125,305.6640625,254.8828125,0.0
1695232837.157048,145.99609375,-65.91796875,300.29296875,-1000.0,0.0
1695232837.1609461,-1000.0,-843.75,203.125,-454.1015625,0.0
1695232837.1648443,-282.2265625,-570.80078125,226.5625,-904.296875,0.0
1695232837.1688468,-820.80078125,219.7265625,277.34375,659.1796875,0.0
1695232837.172745,307.12890625,150.390625,216.796875,-915.0390625,0.0
1695232837.1766431,-1000.0,-645.5078125,218.26171875,-996.58203125,0.0
1695232837.1805413,-625.0,-722.16796875,216.30859375,575.68359375,0.0
1695232837.1844394,852.05078125,1.953125,271.97265625,998.046875,0.0
1695232837.1883376,393.5546875,253.41796875,233.88671875,-508.30078125,0.0
1695232837.1922357,-913.57421875,-444.82421875,261.71875,-1000.0,0.0
1695232837.1961339,-1000.0,-857.91015625,217.28515625,-7.8125,0.0
1695232837.2000318,230.46875,-166.9921875,311.5234375,-783.69140625,0.0
1695232837.20393,-836.9140625,408.69140625,274.4140625,190.4296875,0.0
1695232837.207828,-144.04296875,-207.03125,206.0546875,-1000.0,0.0
1695232837.2117262,-1000.0,-909.1796875,212.40234375,-265.13671875,0.0
1695232837.2157204,-215.33203125,-397.94921875,245.60546875,-803.7109375,0.0
1695232837.2196186,-820.3125,385.7421875,252.9296875,327.1484375,0.0
1695232837.2235167,200.1953125,32.71484375,210.44921875,-1000.0,0.0
1695232837.2274148,-1000.0,-792.96875,250.48828125,-528.80859375,0.0
1695232837.231313,-350.09765625,-626.46484375,256.34765625,-957.03125,0.0
1695232837.2352111,-842.28515625,166.9921875,280.2734375,767.08984375,0.0
1695232837.2391093,367.1875,201.66015625,219.7265625,-807.6171875,0.0
1695232837.2430074,-1000.0,-590.33203125,273.4375,-1000.0,0.0
1695232837.2469056,-811.5234375,-796.38671875,278.80859375,455.56640625,0.0
1695232837.2508037,765.625,-30.2734375,253.90625,-815.91796875,0.0
1695232837.254702,870.1171875,355.46875,179.19921875,-78.61328125,0.0
1695232837.2586002,-641.11328125,-390.625,223.14453125,-1000.0,0.0
1695232837.2625873,-1000.0,-908.69140625,209.47265625,-172.8515625,0.0
1695232837.2664855,46.38671875,-235.3515625,231.93359375,-796.875,0.0
1695232837.2703836,-796.875,426.7578125,245.1171875,229.00390625,0.0
1695232837.2742817,-91.796875,-176.26953125,208.984375,-1000.0,0.0
1695232837.27818,-1000.0,-845.703125,243.65234375,-302.734375,0.0
1695232837.282078,45.41015625,-377.9296875,305.6640625,-822.265625,0.0
1695232837.2859762,-842.28515625,286.62109375,266.6015625,466.796875,0.0
1695232837.2898743,217.7734375,55.6640625,274.4140625,-1000.0,0.0
1695232837.2937725,-1000.0,-735.3515625,271.484375,-731.93359375,0.0
1695232837.2976706,-502.9296875,-666.50390625,206.54296875,853.515625,0.0
1695232837.3015687,-912.59765625,111.328125,257.32421875,948.2421875,0.0
1695232837.305467,500.48828125,244.140625,208.984375,-539.0625,0.0
1695232837.309448,-1000.0,-522.94921875,225.09765625,-1000.0,0.0
1695232837.3133461,-976.07421875,-816.89453125,206.54296875,126.46484375,0.0
1695232837.3172443,547.8515625,-98.6328125,275.390625,-784.1796875,0.0
1695232837.3211424,952.1484375,355.95703125,228.02734375,58.59375,0.0
1695232837.3250406,-534.1796875,-342.28515625,209.47265625,-1000.0,0.0
1695232837.3289387,-1000.0,-940.91796875,226.07421875,-233.88671875,0.0
1695232837.3328369,-99.609375,-323.2421875,304.19921875,-804.6875,0.0
1695232837.336735,-816.89453125,388.18359375,276.3671875,241.2109375,0.0
1695232837.3406332,114.2578125,-94.7265625,210.9375,-1000.0,0.0
1695232837.3445313,-1000.0,-866.69921875,222.16796875,-404.78515625,0.0
1695232837.3484294,-248.53515625,-525.87890625,253.90625,-869.62890625,0.0
1695232837.3523278,-812.5,278.3203125,276.3671875,571.2890625,0.0
1695232837.3563104,259.27734375,152.34375,208.49609375,-1000.0,0.0
1695232837.3602085,-1000.0,-659.1796875,233.88671875,-872.0703125,0.0
1695232837.3641067,-602.05078125,-711.9140625,236.81640625,676.26953125,0.0
1695232837.3680048,-982.421875,64.453125,261.23046875,-941.40625,0.0
1695232837.371903,605.95703125,291.50390625,196.77734375,-386.23046875,0.0
1695232837.375801,-930.6640625,-474.12109375,232.421875,-1000.0,0.0
1695232837.3796992,-1000.0,-878.90625,276.3671875,40.52734375,0.0
1695232837.3835974,300.29296875,-175.78125,321.2890625,-775.390625,0.0
1695232837.3874955,-889.16015625,386.71875,190.91796875,164.0625,0.0
1695232837.3913937,-269.04296875,-271.484375,202.63671875,-1000.0,0.0
1695232837.395292,-1000.0,-942.87109375,212.890625,-259.765625,0.0
1695232837.3991902,-186.5234375,-385.25390625,255.859375,-803.7109375,0.0
1695232837.4031644,-820.80078125,382.8125,246.09375,276.85546875,0.0
1695232837.4070628,178.22265625,-8.7890625,209.47265625,-1000.0,0.0
1695232837.410961,-1000.0,-809.08203125,223.6328125,-495.1171875,0.0
1695232837.414859,-308.10546875,-581.54296875,211.9140625,-926.7578125,0.0
1695232837.4187572,-828.125,219.23828125,271.484375,686.03515625,0.0
1695232837.4226553,343.75,191.89453125,269.04296875,-875.0,0.0
1695232837.4265535,-1000.0,-615.234375,268.06640625,-1000.0,0.0
1695232837.4304516,-776.3671875,-761.23046875,206.54296875,414.0625,0.0
1695232837.4343498,846.6796875,-0.48828125,254.8828125,-833.49609375,0.0
1695232837.438248,721.19140625,309.08203125,244.62890625,-159.1796875,0.0
1695232837.4421463,-819.82421875,-445.3125,269.53125,-1000.0,0.0
1695232837.4460444,-1000.0,-907.2265625,193.84765625,-141.11328125,0.0
1695232837.4500525,151.85546875,-218.26171875,247.55859375,-794.921875,0.0
1695232837.4539506,-850.5859375,393.06640625,248.53515625,219.23828125,0.0
1695232837.4578488,-158.69140625,-208.0078125,230.46875,-1000.0,0.0
1695232837.461747,-1000.0,-907.71484375,180.6640625,-280.2734375,0.0
1695232837.4656453,-225.5859375,-429.6875,213.8671875,-812.01171875,0.0
1695232837.4695435,-824.21875,349.12109375,278.3203125,413.57421875,0.0
1695232837.4734416,223.6328125,67.3828125,243.65234375,-1000.0,0.0
1695232837.4773397,-1000.0,-743.65234375,246.58203125,-645.99609375,0.0
1695232837.481238,-426.7578125,-637.6953125,250.48828125,950.68359375,0.0
1695232837.485136,-873.046875,148.4375,294.921875,859.375,0.0
1695232837.4890342,429.19921875,238.28125,211.9140625,-662.59765625,0.0
1695232837.4929326,-1000.0,-539.55078125,209.9609375,-1000.0,0.0
1695232837.4969444,-892.08984375,-791.9921875,205.56640625,229.4921875,0.0
1695232837.5008426,664.0625,-56.640625,274.4140625,-795.8984375,0.0
1695232837.504741,908.203125,368.65234375,195.80078125,-31.73828125,0.0
1695232837.508639,-619.62890625,-360.3515625,194.82421875,-1000.0,0.0
1695232837.5125372,-1000.0,-886.23046875,255.859375,-205.56640625,0.0
1695232837.5164354,61.03515625,-233.3984375,314.453125,-803.22265625,0.0
1695232837.5203335,-816.40625,403.80859375,249.0234375,234.86328125,0.0
1695232837.524232,81.0546875,-107.421875,185.546875,-1000.0,0.0
1695232837.52813,-1000.0,-891.11328125,270.01953125,-349.12109375,0.0
1695232837.5320282,-244.62890625,-531.25,325.68359375,-840.33203125,0.0
1695232837.5359263,-813.96484375,292.48046875,238.28125,495.1171875,0.0
1695232837.5398245,237.79296875,119.62890625,203.125,-1000.0,0.0
1695232837.5438285,-1000.0,-693.84765625,239.2578125,-789.0625,0.0
1695232837.5477269,-547.8515625,-687.98828125,230.46875,776.85546875,0.0
1695232837.551625,-941.89453125,95.21484375,264.16015625,-997.0703125,0.0
1695232837.5555232,578.125,282.71484375,187.98828125,-464.84375,0.0
1695232837.5594213,-974.12109375,-488.28125,234.86328125,-1000.0,0.0
1695232837.5633194,-1000.0,-832.51953125,240.234375,85.9375,0.0
1695232837.5672178,420.41015625,-97.65625,295.8984375,-774.90234375,0.0
1695232837.571116,-901.3671875,406.73828125,244.62890625,138.18359375,0.0
1695232837.575014,-306.640625,-290.52734375,276.85546875,-1000.0,0.0
1695232837.5789123,-1000.0,-915.52734375,247.55859375,-256.34765625,0.0
1695232837.5828104,-147.94921875,-325.68359375,228.515625,-804.6875,0.0
1695232837.5867088,-812.5,387.6953125,276.85546875,256.8359375,0.0
1695232837.590716,170.8984375,-58.10546875,256.8359375,-1000.0,0.0
1695232837.594614,-1000.0,-844.23828125,212.40234375,-469.7265625,0.0
1695232837.5985122,-281.73828125,-571.77734375,213.37890625,-910.64453125,0.0
1695232837.6024106,-818.359375,216.796875,289.0625,654.296875,0.0
1695232837.6063087,306.640625,151.3671875,248.046875,-926.7578125,0.0
1695232837.6102068,-1000.0,-636.71875,242.67578125,-971.6796875,0.0
1695232837.614105,-678.22265625,-738.28125,226.07421875,502.44140625,0.0
1695232837.6180034,936.5234375,26.85546875,310.546875,-833.49609375,0.0
1695232837.6219015,746.09375,318.359375,282.2265625,-151.3671875,0.0
1695232837.6257997,-798.828125,-415.0390625,213.37890625,-1000.0,0.0
1695232837.6296978,-1000.0,-857.421875,217.28515625,-67.87109375,0.0
1695232837.6335962,213.8671875,-164.55078125,297.36328125,-779.296875,0.0
1695232837.6375859,-838.37890625,432.6171875,232.91015625,193.84765625,0.0
1695232837.6414843,-146.97265625,-202.63671875,205.078125,-1000.0,0.0
1695232837.6453824,-1000.0,-917.96875,210.44921875,-268.06640625,0.0
1695232837.6492805,-218.75,-417.96875,249.0234375,-806.15234375,0.0
1695232837.6531787,-821.2890625,358.88671875,264.16015625,322.265625,0.0
1695232837.657077,204.58984375,20.5078125,237.3046875,-1000.0,0.0
1695232837.6609752,-1000.0,-797.36328125,250.9765625,-567.3828125,0.0
1695232837.6648734,-361.81640625,-655.76171875,313.4765625,-968.75,0.0
1695232837.6687717,-846.6796875,154.78515625,305.6640625,729.98046875,0.0
1695232837.67267,390.625,226.07421875,163.57421875,-824.21875,0.0
1695232837.676568,-1000.0,-570.3125,223.14453125,-1000.0,0.0
1695232837.6804662,-830.56640625,-776.3671875,230.95703125,317.3828125,0.0
1695232837.6844475,728.02734375,-18.5546875,284.66796875,-802.734375,0.0
1695232837.688346,922.36328125,379.8828125,227.05078125,-51.7578125,0.0
1695232837.692244,-574.70703125,-359.375,248.046875,-1000.0,0.0
1695232837.6961422,-1000.0,-896.484375,227.5390625,-155.76171875,0.0
1695232837.7000406,37.59765625,-224.12109375,237.3046875,-904.78515625,0.0
1695232837.7039387,-809.08203125,433.10546875,219.7265625,49.8046875,0.0
1695232837.7078369,3.90625,-130.859375,249.0234375,-1000.0,0.0
1695232837.711735,-1000.0,-893.06640625,264.6484375,-302.734375,0.0
1695232837.7156334,-236.81640625,-457.03125,234.375,-825.1953125,0.0
1695232837.7195315,-817.87109375,352.05078125,249.51171875,408.69140625,0.0
1695232837.7234297,227.05078125,111.81640625,230.95703125,-1000.0,0.0
1695232837.727328,-1000.0,-706.0546875,232.91015625,-749.0234375,0.0
1695232837.731312,-498.046875,-655.76171875,196.2890625,828.125,0.0
1695232837.7352104,-911.62109375,131.8359375,264.16015625,927.734375,0.0
1695232837.7391086,526.85546875,272.94921875,215.33203125,-584.9609375,0.0
1695232837.7430067,-1000.0,-518.5546875,246.09375,-1000.0,0.0
1695232837.746905,-967.28515625,-819.3359375,240.72265625,144.04296875,0.0
1695232837.7508032,531.73828125,-78.61328125,275.390625,-782.2265625,0.0
1695232837.7547014,-957.51953125,376.953125,293.45703125,81.0546875,0.0
1695232837.7585998,-401.3671875,-316.40625,286.62109375,-1000.0,0.0
1695232837.762498,-1000.0,-883.30078125,177.734375,-249.0234375,0.0
1695232837.766396,-90.33203125,-268.5546875,251.953125,-807.6171875,0.0
1695232837.7702942,-802.24609375,436.03515625,266.6015625,240.72265625,0.0
1695232837.7741926,160.15625,-40.0390625,213.8671875,-1000.0,0.0
1695232837.7781703,-1000.0,-825.68359375,205.56640625,-434.08203125,0.0
1695232837.7820685,-255.859375,-510.7421875,229.98046875,-879.8828125,0.0
1695232837.7859666,-809.08203125,289.0625,262.6953125,552.24609375,0.0
1695232837.789865,279.78515625,168.45703125,195.3125,-1000.0,0.0
1695232837.7937632,-1000.0,-649.4140625,224.12109375,-906.25,0.0
1695232837.7976613,-611.81640625,-725.5859375,271.484375,613.28125,0.0
1695232837.8015597,-989.74609375,39.0625,317.3828125,-919.43359375,0.0
1695232837.8054578,645.01953125,296.875,209.9609375,-346.6796875,0.0
1695232837.809356,-908.69140625,-448.73046875,214.84375,-1000.0,0.0
1695232837.8132544,-1000.0,-848.14453125,212.890625,-5.37109375,0.0
1695232837.8171525,303.7109375,-125.48828125,272.4609375,-781.73828125,0.0
1695232837.8210506,-840.33203125,443.84765625,221.19140625,157.2265625,0.0
1695232837.8250608,-169.43359375,-208.984375,202.1484375,-1000.0,0.0
1695232837.828959,-1000.0,-884.27734375,216.30859375,-257.32421875,0.0
1695232837.8328571,-189.94140625,-333.0078125,256.8359375,-805.17578125,0.0
1695232837.8367555,-810.05859375,434.5703125,253.41796875,274.90234375,0.0
1695232837.8406537,213.8671875,43.9453125,217.7734375,-1000.0,0.0
1695232837.8445518,-1000.0,-770.99609375,237.3046875,-500.0,0.0
1695232837.8484502,-300.29296875,-564.453125,258.30078125,-922.8515625,0.0
1695232837.8523483,-820.3125,239.2578125,269.53125,664.0625,0.0
1695232837.8562467,370.60546875,230.95703125,222.65625,-891.11328125,0.0
1695232837.8601449,-1000.0,-588.37890625,272.94921875,-1000.0,0.0
1695232837.864043,-756.34765625,-752.9296875,229.4921875,381.8359375,0.0
1695232837.8679414,842.7734375,19.53125,249.0234375,-839.84375,0.0
1695232837.8719435,836.42578125,356.93359375,208.984375,-185.546875,0.0
1695232837.8758416,-696.2890625,-391.6015625,231.4453125,-1000.0,0.0
1695232837.87974,-1000.0,-867.1875,201.171875,-154.78515625,0.0
1695232837.8836381,157.2265625,-168.9453125,249.0234375,-801.26953125,0.0
1695232837.8875365,-806.15234375,455.078125,255.859375,216.796875,0.0
1695232837.8914347,-44.43359375,-151.85546875,254.39453125,-1000.0,0.0
1695232837.8953328,-1000.0,-868.65234375,230.46875,-290.52734375,0.0
1695232837.8992312,-228.515625,-391.11328125,221.6796875,-817.3828125,0.0
1695232837.9031293,-808.59375,382.32421875,302.734375,375.9765625,0.0
1695232837.9070277,213.8671875,80.078125,277.34375,-1000.0,0.0
1695232837.9109259,-1000.0,-697.75390625,211.42578125,-669.43359375,0.0
1695232837.914824,-344.7265625,-594.23828125,236.81640625,954.1015625,0.0
1695232837.918821,-888.18359375,162.59765625,274.4140625,817.3828125,0.0
1695232837.9227192,499.0234375,263.671875,208.49609375,-710.44921875,0.0
1695232837.9266174,-1000.0,-515.13671875,222.16796875,-1000.0,0.0
1695232837.9305158,-885.25390625,-771.484375,207.51953125,151.3671875,0.0
1695232837.934414,676.7578125,-36.62109375,262.20703125,-797.8515625,0.0
1695232837.9383123,956.0546875,382.32421875,218.26171875,-20.5078125,0.0
1695232837.9422104,-527.83203125,-330.56640625,241.69921875,-1000.0,0.0
1695232837.9461088,-1000.0,-878.90625,216.30859375,-209.47265625,0.0
1695232837.950007,-15.13671875,-252.9296875,305.6640625,-805.17578125,0.0
1695232837.953905,-794.43359375,437.01171875,287.59765625,236.81640625,0.0
1695232837.9578035,125.48828125,-68.84765625,191.89453125,-1000.0,0.0
1695232837.9617016,-1000.0,-854.98046875,214.35546875,-379.39453125,0.0
1695232837.9656992,-251.46484375,-484.375,243.65234375,-852.05078125,0.0
1695232837.9695973,-808.10546875,327.1484375,247.55859375,488.76953125,0.0
1695232837.9734957,249.0234375,142.578125,214.35546875,-1000.0,0.0
1695232837.9773939,-1000.0,-672.8515625,245.60546875,-806.640625,0.0
1695232837.9812922,-494.140625,-662.59765625,225.09765625,767.08984375,0.0
1695232837.9851904,-923.33984375,125.48828125,290.0390625,984.86328125,0.0
1695232837.9890888,638.18359375,329.1015625,205.078125,-504.39453125,0.0
1695232837.992987,-922.36328125,-441.40625,260.25390625,-1000.0,0.0
1695232837.9968853,-1000.0,-804.6875,270.5078125,99.609375,0.0
1695232838.0007834,436.03515625,-67.87109375,244.140625,-779.296875,0.0
1695232838.0046818,-860.3515625,446.77734375,208.984375,107.421875,0.0
1695232838.00858,-226.5625,-245.1171875,220.703125,-1000.0,0.0
1695232838.012581,-1000.0,-878.90625,201.171875,-251.46484375,0.0
1695232838.0164793,-132.8125,-292.96875,217.28515625,-808.10546875,0.0
1695232838.0203776,-802.734375,440.4296875,249.51171875,242.1875,0.0
1695232838.0242758,179.6875,0.0,213.37890625,-1000.0,0.0
1695232838.0281742,-1000.0,-799.31640625,213.8671875,-482.421875,0.0
1695232838.0320723,-273.92578125,-538.0859375,259.27734375,-913.0859375,0.0
1695232838.0359707,-813.96484375,260.7421875,271.484375,625.9765625,0.0
1695232838.0398688,355.46875,197.75390625,270.01953125,-932.6171875,0.0
1695232838.0437672,-1000.0,-591.30859375,272.4609375,-1000.0,0.0
1695232838.0476654,-669.921875,-679.19921875,186.03515625,434.5703125,0.0
1695232838.0515637,941.89453125,82.51953125,261.23046875,-868.1640625,0.0
1695232838.055462,808.10546875,368.65234375,205.56640625,-249.51171875,0.0
1695232838.0594451,-745.1171875,-376.953125,208.984375,-1000.0,0.0
1695232838.0633435,-1000.0,-805.6640625,200.1953125,-102.05078125,0.0
1695232838.0672417,258.30078125,-118.1640625,257.8125,-792.96875,0.0
1695232838.07114,-809.5703125,444.3359375,237.3046875,194.82421875,0.0
1695232838.0750382,-78.125,-185.546875,235.3515625,-1000.0,0.0
1695232838.0789366,-1000.0,-883.7890625,229.00390625,-261.71875,0.0
1695232838.0828347,-217.7734375,-383.30078125,285.64453125,-806.15234375,0.0
1695232838.086733,-811.5234375,390.625,290.0390625,312.01171875,0.0
1695232838.0906312,233.88671875,66.40625,204.1015625,-1000.0,0.0
1695232838.0945296,-1000.0,-735.83984375,207.03125,-638.18359375,0.0
1695232838.0984278,-354.00390625,-583.984375,235.3515625,971.6796875,0.0
1695232838.1023262,-841.796875,221.19140625,281.73828125,745.60546875,0.0
1695232838.1063032,468.75,280.76171875,190.91796875,-813.4765625,0.0
1695232838.1102016,-1000.0,-514.6484375,212.40234375,-1000.0,0.0
1695232838.1140997,-783.69140625,-732.91015625,222.65625,277.34375,0.0
1695232838.1179981,810.05859375,17.08984375,262.20703125,-822.75390625,0.0
1695232838.1218963,919.43359375,400.390625,204.1015625,-140.625,0.0
1695232838.1257946,-576.66015625,-336.42578125,230.95703125,-1000.0,0.0
1695232838.1296928,-1000.0,-873.53515625,285.15625,-170.41015625,0.0
1695232838.1335912,65.91796875,-202.1484375,308.59375,-803.22265625,0.0
1695232838.1374893,-786.62109375,479.00390625,195.3125,227.5390625,0.0
1695232838.1413877,93.26171875,-96.19140625,212.40234375,-1000.0,0.0
1695232838.145286,-1000.0,-864.74609375,252.9296875,-324.70703125,0.0
1695232838.1491842,-249.51171875,-430.17578125,248.53515625,-827.63671875,0.0
1695232838.1531534,-807.12890625,384.27734375,227.5390625,416.50390625,0.0
1695232838.1570516,241.69921875,149.4140625,195.3125,-1000.0,0.0
1695232838.16095,-1000.0,-671.38671875,217.7734375,-754.8828125,0.0
1695232838.164848,-425.78125,-615.234375,192.87109375,835.9375,0.0
1695232838.1687465,-879.39453125,178.22265625,245.1171875,895.01953125,0.0
1695232838.1726446,563.96484375,307.6171875,241.69921875,-615.234375,0.0
1695232838.176543,-1000.0,-482.91015625,266.6015625,-1000.0,0.0
1695232838.1804411,-926.26953125,-770.99609375,190.91796875,82.03125,0.0
1695232838.1843395,564.94140625,-29.78515625,248.046875,-789.55078125,0.0
1695232838.188238,-867.1875,436.5234375,248.53515625,58.59375,0.0
1695232838.192136,-248.046875,-252.9296875,243.1640625,-1000.0,0.0
1695232838.1960344,-1000.0,-840.8203125,144.04296875,-245.1171875,0.0
1695232838.200036,-29.296875,-228.02734375,202.1484375,-809.08203125,0.0
1695232838.2039342,-780.76171875,479.98046875,246.58203125,244.140625,0.0
1695232838.2078326,175.78125,3.41796875,204.1015625,-1000.0,0.0
1695232838.211731,-1000.0,-777.83203125,213.8671875,-409.1796875,0.0
1695232838.215629,-262.6953125,-456.0546875,232.421875,-928.22265625,0.0
1695232838.2195275,-806.640625,337.890625,271.97265625,502.44140625,0.0
1695232838.2234256,324.70703125,200.68359375,246.09375,-985.3515625,0.0
1695232838.227324,-1000.0,-612.3046875,252.9296875,-943.359375,0.0
1695232838.2312224,-571.77734375,-669.43359375,229.4921875,579.58984375,0.0
1695232838.2351205,-970.21484375,103.515625,300.78125,-929.6875,0.0
1695232838.239019,730.95703125,349.12109375,211.42578125,-374.51171875,0.0
1695232838.242917,-840.33203125,-395.01953125,209.9609375,-1000.0,0.0
1695232838.2469203,-1000.0,-787.109375,221.19140625,-15.625,0.0
1695232838.2508187,388.671875,-67.87109375,261.71875,-785.15625,0.0
1695232838.254717,-813.4765625,485.3515625,225.5859375,156.25,0.0
1695232838.2586153,-96.6796875,-175.78125,210.9375,-1000.0,0.0
1695232838.2625136,-1000.0,-853.02734375,240.72265625,-256.8359375,0.0
1695232838.266412,-169.921875,-310.05859375,303.7109375,-805.6640625,0.0
1695232838.2703102,-797.8515625,457.03125,258.30078125,273.92578125,0.0
1695232838.2742085,225.09765625,75.68359375,183.10546875,-1000.0,0.0
1695232838.2781067,-1000.0,-750.9765625,265.625,-509.765625,0.0
1695232838.282005,-287.59765625,-555.6640625,321.2890625,-925.78125,0.0
1695232838.2859035,-814.453125,262.6953125,257.32421875,655.76171875,0.0
1695232838.2898016,403.80859375,261.23046875,173.33984375,-897.94921875,0.0
1695232838.2937977,-1000.0,-549.31640625,226.07421875,-1000.0,0.0
1695232838.297696,-671.38671875,-705.078125,229.00390625,371.09375,0.0
1695232838.3015943,916.50390625,56.640625,262.20703125,-850.5859375,0.0
1695232838.3054926,893.5546875,395.01953125,207.51953125,-214.84375,0.0
1695232838.309391,-609.375,-345.703125,237.3046875,-1000.0,0.0
1695232838.3132892,-1000.0,-832.03125,232.91015625,-156.25,0.0
1695232838.3171875,163.57421875,-144.53125,287.109375,-804.19921875,0.0
1695232838.3210857,-789.0625,482.421875,247.0703125,224.12109375,0.0
1695232838.324984,20.01953125,-129.8828125,273.92578125,-1000.0,0.0
1695232838.3288825,-1000.0,-852.5390625,243.65234375,-310.546875,0.0
1695232838.3327806,-233.3984375,-367.67578125,208.0078125,-821.2890625,0.0
1695232838.336679,-808.59375,403.3203125,276.3671875,343.26171875,0.0
1695232838.3406687,236.328125,106.93359375,238.76953125,-1000.0,0.0
1695232838.3445668,-1000.0,-693.84765625,208.49609375,-670.41015625,0.0
1695232838.3484652,-382.8125,-583.49609375,199.70703125,908.203125,0.0
1695232838.3523636,-858.3984375,195.80078125,289.0625,863.28125,0.0
1695232838.3562617,532.71484375,287.59765625,252.9296875,-656.73828125,0.0
1695232838.36016,-1000.0,-487.3046875,251.953125,-1000.0,0.0
1695232838.3640585,-848.6328125,-742.1875,217.28515625,168.9453125,0.0
1695232838.3679566,686.5234375,-0.48828125,295.41015625,-784.66796875,0.0
1695232838.371855,-923.33984375,420.8984375,264.16015625,54.6875,0.0
1695232838.3757534,-353.515625,-287.109375,227.05078125,-1000.0,0.0
1695232838.3796515,-1000.0,-837.40234375,210.44921875,-226.07421875,0.0
1695232838.38355,59.08203125,-194.3359375,257.32421875,-801.7578125,0.0
1695232838.3875413,-776.85546875,480.46875,241.2109375,236.328125,0.0
1695232838.3914397,140.13671875,-37.59765625,195.80078125,-1000.0,0.0
1695232838.3953378,-1000.0,-811.03515625,210.44921875,-381.34765625,0.0
1695232838.3992362,-257.32421875,-447.265625,245.60546875,-853.02734375,0.0
1695232838.4031346,-805.6640625,357.421875,268.06640625,488.76953125,0.0
1695232838.407033,277.34375,179.6875,224.12109375,-1000.0,0.0
1695232838.410931,-1000.0,-630.859375,250.9765625,-808.10546875,0.0
1695232838.4148295,-481.4453125,-640.625,295.41015625,765.13671875,0.0
1695232838.4187279,-911.62109375,147.94921875,304.6875,976.5625,0.0
1695232838.422626,637.6953125,354.98046875,174.31640625,-514.6484375,0.0
1695232838.4265244,-940.4296875,-415.0390625,218.26171875,-1000.0,0.0
1695232838.4304228,-968.75,-762.20703125,232.421875,92.7734375,0.0
1695232838.434417,505.37109375,-41.50390625,283.69140625,-778.3203125,0.0
1695232838.4383154,-845.21484375,470.21484375,202.1484375,109.375,0.0
1695232838.4422138,-168.45703125,-218.75,216.30859375,-1000.0,0.0
1695232838.4461122,-1000.0,-860.3515625,215.8203125,-252.9296875,0.0
1695232838.4500103,-127.9296875,-274.4140625,231.93359375,-807.12890625,0.0
1695232838.4539087,-792.48046875,463.37890625,254.8828125,258.30078125,0.0
1695232838.457807,211.42578125,22.4609375,253.41796875,-1000.0,0.0
1695232838.4617054,-1000.0,-777.34375,261.71875,-478.02734375,0.0
1695232838.4656036,-265.13671875,-497.55859375,228.515625,-900.390625,0.0
1695232838.469502,-806.15234375,311.5234375,240.72265625,583.0078125,0.0
1695232838.4734004,346.6796875,243.1640625,216.796875,-972.65625,0.0
1695232838.4772987,-1000.0,-561.03515625,233.88671875,-1000.0,0.0
1695232838.481286,-626.46484375,-665.0390625,182.6171875,453.61328125,0.0
1695232838.4851844,971.19140625,90.8203125,254.8828125,-873.046875,0.0
1695232838.4890828,807.6171875,365.72265625,220.703125,-262.20703125,0.0
1695232838.492981,-731.93359375,-397.94921875,248.53515625,-1000.0,0.0
1695232838.4968793,-1000.0,-834.47265625,202.63671875,-107.91015625,0.0
1695232838.5007777,264.16015625,-129.8828125,242.1875,-795.41015625,0.0
1695232838.504676,-808.10546875,440.91796875,305.6640625,206.0546875,0.0
1695232838.5085742,-79.1015625,-192.3828125,291.9921875,-1000.0,0.0
1695232838.5124726,-1000.0,-867.1875,164.55078125,-277.83203125,0.0
1695232838.516371,-208.0078125,-358.3984375,219.7265625,-810.546875,0.0
1695232838.5202694,-808.10546875,408.203125,260.7421875,291.9921875,0.0
1695232838.5241675,235.83984375,76.66015625,197.75390625,-1000.0,0.0
1695232838.528138,-1000.0,-722.16796875,197.265625,-641.6015625,0.0
1695232838.532036,-348.14453125,-560.546875,202.1484375,961.9140625,0.0
1695232838.5359344,-835.44921875,233.3984375,261.23046875,753.90625,0.0
1695232838.5398328,456.0546875,268.5546875,188.4765625,-861.328125,0.0
1695232838.5437312,-1000.0,-512.6953125,229.4921875,-1000.0,0.0
1695232838.5476294,-724.609375,-717.7734375,267.578125,450.1953125,0.0
1695232838.5515277,815.91796875,8.7890625,320.3125,-826.66015625,0.0
1695232838.5554261,955.078125,392.08984375,224.12109375,-94.7265625,0.0
1695232838.5593245,-535.15625,-326.171875,210.44921875,-1000.0,0.0
1695232838.563223,-1000.0,-848.6328125,249.51171875,-175.78125,0.0
1695232838.567121,122.0703125,-184.5703125,301.7578125,-798.828125,0.0
1695232838.5710194,-780.76171875,483.3984375,229.98046875,229.98046875,0.0
1695232838.5750313,93.26171875,-78.125,216.796875,-1000.0,0.0
1695232838.5789297,-1000.0,-833.984375,218.26171875,-298.828125,0.0
1695232838.582828,-250.0,-407.71484375,237.79296875,-812.98828125,0.0
1695232838.5867262,-805.6640625,393.5546875,245.60546875,411.62109375,0.0
1695232838.5906246,245.1171875,155.2734375,203.125,-1000.0,0.0
1695232838.594523,-1000.0,-661.1328125,237.3046875,-609.375,0.0
1695232838.5984213,-402.34375,-603.02734375,250.0,916.015625,0.0
1695232838.6023197,-873.046875,182.6171875,278.3203125,893.5546875,0.0
1695232838.6062179,587.40234375,316.89453125,226.07421875,-597.65625,0.0
1695232838.6101162,-988.28125,-463.8671875,276.3671875,-1000.0,0.0
1695232838.6140146,-906.73828125,-753.90625,211.9140625,122.0703125,0.0
1695232838.617913,606.4453125,-12.20703125,240.234375,-787.109375,0.0
1695232838.6219091,-884.765625,451.66015625,241.2109375,54.19921875,0.0
1695232838.6258073,-275.87890625,-249.0234375,234.375,-1000.0,0.0
1695232838.6297057,-1000.0,-837.40234375,184.08203125,-240.72265625,0.0
1695232838.633604,-6.8359375,-214.84375,235.83984375,-806.640625,0.0
1695232838.6375024,-778.3203125,487.3046875,259.765625,239.2578125,0.0
1695232838.6414008,173.828125,-16.6015625,248.046875,-1000.0,0.0
1695232838.6452992,-1000.0,-799.31640625,226.5625,-392.08984375,0.0
1695232838.6491973,-262.20703125,-461.9140625,207.51953125,-872.55859375,0.0
1695232838.6530957,-805.6640625,324.21875,303.7109375,604.00390625,0.0
1695232838.656994,311.03515625,177.734375,271.484375,-965.33203125,0.0
1695232838.6608925,-1000.0,-617.67578125,199.21875,-932.6171875,0.0
1695232838.6647909,-547.36328125,-663.57421875,230.95703125,607.421875,0.0
1695232838.6687903,-960.44921875,104.00390625,302.24609375,-930.6640625,0.0
1695232838.6726887,730.46875,345.703125,202.63671875,-372.0703125,0.0
1695232838.676587,-829.58984375,-406.73828125,207.51953125,-1000.0,0.0
1695232838.6804852,-1000.0,-794.921875,190.4296875,-19.53125,0.0
1695232838.6843836,385.7421875,-83.49609375,252.44140625,-784.1796875,0.0
1695232838.688282,-827.1484375,452.63671875,243.65234375,163.0859375,0.0
1695232838.6921804,-143.06640625,-211.42578125,239.2578125,-1000.0,0.0
1695232838.6960788,-1000.0,-873.046875,233.3984375,-256.8359375,0.0
1695232838.6999772,-171.38671875,-335.9375,311.5234375,-806.15234375,0.0
1695232838.7038755,-803.22265625,412.59765625,290.52734375,262.20703125,0.0
1695232838.707774,221.19140625,34.66796875,206.54296875,-1000.0,0.0
1695232838.711672,-1000.0,-771.484375,236.81640625,-537.59765625,0.0
1695232838.715664,-302.734375,-556.640625,243.65234375,-944.82421875,0.0
1695232838.7195623,-820.3125,244.140625,263.18359375,665.0390625,0.0
1695232838.7234607,378.41796875,218.75,208.0078125,-913.0859375,0.0
1695232838.7273588,-1000.0,-578.125,231.93359375,-1000.0,0.0
1695232838.7312572,-713.8671875,-723.6328125,235.83984375,426.26953125,0.0
1695232838.7351556,882.8125,38.0859375,297.36328125,-844.23828125,0.0
1695232838.739054,866.69921875,368.65234375,215.33203125,-204.58984375,0.0
1695232838.7429523,-665.0390625,-379.8828125,240.72265625,-1000.0,0.0
1695232838.7468507,-1000.0,-855.95703125,253.90625,-79.1015625,0.0
1695232838.750749,192.87109375,-145.5078125,241.69921875,-786.62109375,0.0
1695232838.7546475,-791.50390625,473.14453125,211.42578125,205.078125,0.0
1695232838.7585459,0.9765625,-143.5546875,237.79296875,-1000.0,0.0
1695232838.7625294,-1000.0,-861.81640625,224.609375,-300.78125,0.0
1695232838.7664278,-234.86328125,-379.8828125,217.28515625,-817.87109375,0.0
1695232838.7703261,-809.08203125,399.90234375,249.51171875,353.02734375,0.0
1695232838.7742245,238.28125,104.00390625,208.984375,-1000.0,0.0
1695232838.778123,-1000.0,-703.125,225.09765625,-651.3671875,0.0
1695232838.7820213,-362.3046875,-597.65625,246.09375,939.94140625,0.0
1695232838.7859197,-848.14453125,192.87109375,269.53125,832.03125,0.0
1695232838.789818,513.18359375,272.94921875,258.7890625,-704.1015625,0.0
1695232838.7937164,-1000.0,-503.41796875,275.390625,-1000.0,0.0
1695232838.7976148,-818.84765625,-727.05078125,185.546875,218.26171875,0.0
1695232838.801513,721.19140625,12.6953125,265.625,-786.62109375,0.0
1695232838.8054113,-930.6640625,430.17578125,229.00390625,40.52734375,0.0
1695232838.8093894,-349.12109375,-285.15625,210.9375,-1000.0,0.0
1695232838.8132877,-1000.0,-848.6328125,192.3828125,-228.02734375,0.0
1695232838.817186,35.15625,-209.47265625,249.0234375,-800.78125,0.0
1695232838.8210845,-778.80859375,475.5859375,228.02734375,234.375,0.0
1695232838.824983,138.18359375,-57.6171875,190.4296875,-1000.0,0.0
1695232838.8288813,-1000.0,-833.984375,234.375,-327.63671875,0.0
1695232838.8327796,-255.859375,-463.37890625,302.24609375,-833.49609375,0.0
1695232838.836678,-806.15234375,333.49609375,292.96875,503.90625,0.0
1695232838.8405764,268.06640625,169.921875,201.171875,-1000.0,0.0
1695232838.8444748,-1000.0,-633.30078125,220.21484375,-822.265625,0.0
1695232838.848373,-484.375,-640.625,236.328125,747.0703125,0.0
1695232838.8522713,-918.45703125,138.18359375,281.73828125,995.1171875,0.0
1695232838.8562605,657.2265625,334.47265625,159.1796875,-478.02734375,0.0
1695232838.860159,-918.9453125,-436.5234375,204.58984375,-1000.0,0.0
1695232838.8640573,-989.74609375,-791.015625,220.703125,55.6640625,0.0
1695232838.8679557,491.2109375,-58.10546875,251.46484375,-781.73828125,0.0
1695232838.871854,-849.609375,450.1953125,213.37890625,115.234375,0.0
1695232838.8757524,-208.0078125,-243.65234375,206.0546875,-1000.0,0.0
1695232838.8796508,-1000.0,-886.23046875,270.01953125,-244.140625,0.0
1695232838.8835492,-86.9140625,-301.7578125,324.21875,-805.17578125,0.0
1695232838.8874476,-789.0625,437.98828125,221.6796875,240.72265625,0.0
1695232838.891346,198.2421875,-8.30078125,239.2578125,-1000.0,0.0
1695232838.8952444,-1000.0,-805.17578125,257.8125,-470.703125,0.0
1695232838.8991427,-268.06640625,-517.08984375,211.42578125,-902.34375,0.0
1695232838.9031157,-808.10546875,285.64453125,255.859375,599.609375,0.0
1695232838.9070141,330.078125,198.73046875,224.12109375,-956.0546875,0.0
1695232838.9109125,-1000.0,-607.421875,225.09765625,-1000.0,0.0
1695232838.914811,-627.44140625,-702.1484375,203.61328125,457.51953125,0.0
1695232838.9187093,986.328125,57.6171875,270.99609375,-893.5546875,0.0
1695232838.9226077,738.76953125,319.82421875,254.8828125,-309.5703125,0.0
1695232838.926506,-806.640625,-442.3828125,277.34375,-1000.0,0.0
1695232838.9304044,-1000.0,-852.05078125,190.91796875,-85.44921875,0.0
1695232838.9343028,249.51171875,-137.6953125,230.46875,-793.45703125,0.0
1695232838.9382012,-797.8515625,432.12890625,276.85546875,196.2890625,0.0
1695232838.9420993,-86.42578125,-213.8671875,259.27734375,-1000.0,0.0
1695232838.9459977,-1000.0,-858.88671875,175.29296875,-274.90234375,0.0
1695232838.9500027,-121.58203125,-321.2890625,252.44140625,-809.08203125,0.0
1695232838.9539013,-817.87109375,402.34375,271.97265625,346.19140625,0.0
1695232838.9577997,228.02734375,70.80078125,200.1953125,-1000.0,0.0
1695232838.961698,-1000.0,-747.55859375,205.56640625,-563.96484375,0.0
1695232838.9655964,-315.4296875,-537.59765625,199.70703125,920.41015625,0.0
1695232838.9694948,-825.68359375,275.87890625,254.39453125,506.8359375,0.0
1695232838.9733932,422.36328125,233.3984375,230.95703125,-847.16796875,0.0
1695232838.9772916,-1000.0,-547.36328125,246.58203125,-1000.0,0.0
1695232838.98119,-770.01953125,-736.328125,227.5390625,270.5078125,0.0
1695232838.9850883,795.8984375,2.44140625,300.78125,-815.4296875,0.0
1695232838.9889867,965.8203125,382.32421875,224.12109375,-107.421875,0.0
1695232838.992885,-521.97265625,-336.9140625,203.61328125,-1000.0,0.0
1695232838.9968832,-1000.0,-855.95703125,201.171875,-183.10546875,0.0
1695232839.0007815,107.91015625,-177.734375,261.23046875,-802.24609375,0.0
1695232839.00468,-775.390625,488.76953125,220.21484375,231.4453125,0.0
1695232839.0085783,52.734375,-96.19140625,193.84765625,-1000.0,0.0
1695232839.0124767,-1000.0,-820.3125,241.2109375,-299.31640625,0.0
1695232839.016375,-152.34375,-378.90625,284.1796875,-817.87109375,0.0
1695232839.0202734,-817.3828125,367.1875,261.23046875,409.66796875,0.0
1695232839.0241718,244.140625,133.7890625,180.17578125,-1000.0,0.0
1695232839.0280702,-1000.0,-679.6875,267.578125,-641.11328125,0.0
1695232839.0319686,-422.36328125,-630.37109375,296.875,945.3125,0.0
1695232839.035867,-878.90625,168.9453125,264.16015625,884.765625,0.0
1695232839.0397654,574.21875,306.640625,208.49609375,-604.98046875,0.0
1695232839.0437553,-1000.0,-474.12109375,245.60546875,-1000.0,0.0
1695232839.0476537,-892.578125,-759.765625,226.07421875,127.9296875,0.0
1695232839.051552,643.5546875,-9.27734375,253.90625,-780.76171875,0.0
1695232839.0554504,-930.6640625,438.4765625,208.984375,17.578125,0.0
1695232839.0593488,-354.98046875,-283.203125,220.703125,-1000.0,0.0
1695232839.0632472,-1000.0,-869.62890625,237.3046875,-130.859375,0.0
1695232839.0671456,-14.6484375,-245.60546875,291.50390625,-814.453125,0.0
1695232839.071044,-783.69140625,458.0078125,261.71875,237.79296875,0.0
1695232839.0749424,166.9921875,-56.15234375,280.2734375,-1000.0,0.0
1695232839.0788407,-1000.0,-839.35546875,248.046875,-412.109375,0.0
1695232839.082739,-259.27734375,-483.88671875,192.3828125,-869.62890625,0.0
1695232839.0866375,-806.15234375,307.12890625,268.06640625,553.22265625,0.0
1695232839.0906408,282.2265625,158.203125,228.515625,-1000.0,0.0
1695232839.0945392,-1000.0,-642.578125,209.47265625,-899.90234375,0.0
1695232839.0984378,-547.36328125,-678.7109375,191.89453125,623.046875,0.0
1695232839.1023362,-943.359375,85.44921875,274.90234375,-918.45703125,0.0
1695232839.1062346,636.23046875,303.22265625,216.30859375,-354.4921875,0.0
1695232839.110133,-915.0390625,-456.54296875,223.14453125,-1000.0,0.0
1695232839.1140313,-1000.0,-832.03125,219.7265625,30.2734375,0.0
1695232839.1179297,353.515625,-117.67578125,289.0625,-774.4140625,0.0
1695232839.121828,-842.7734375,412.109375,277.34375,183.59375,0.0
1695232839.1257265,-170.8984375,-248.046875,240.234375,-1000.0,0.0
1695232839.1296248,-1000.0,-907.2265625,197.75390625,-261.23046875,0.0
1695232839.1335232,-178.7109375,-347.16796875,253.41796875,-803.7109375,0.0
1695232839.13751,-807.12890625,410.15625,262.20703125,260.7421875,0.0
1695232839.1414084,208.0078125,6.8359375,199.21875,-1000.0,0.0
1695232839.1453068,-1000.0,-802.734375,218.75,-525.87890625,0.0
1695232839.1492054,-268.5546875,-567.3828125,240.234375,-927.734375,0.0
1695232839.1531038,-873.046875,218.26171875,268.5546875,626.46484375,0.0
1695232839.1570022,289.55078125,178.7109375,236.328125,-955.078125,0.0
1695232839.1609006,-1000.0,-585.44921875,250.9765625,-1000.0,0.0
1695232839.164799,-690.4296875,-729.98046875,275.390625,427.734375,0.0
1695232839.1686974,908.69140625,32.71484375,314.94140625,-848.6328125,0.0
1695232839.1725957,853.02734375,374.51171875,175.29296875,-219.23828125,0.0
1695232839.1764944,-681.15234375,-375.9765625,216.796875,-1000.0,0.0
1695232839.1803927,-1000.0,-847.16796875,240.234375,-77.1484375,0.0
1695232839.1843724,224.609375,-146.97265625,269.53125,-786.1328125,0.0
1695232839.1882708,-796.875,467.28515625,201.66015625,204.1015625,0.0
1695232839.1921692,-35.15625,-146.484375,197.265625,-1000.0,0.0
1695232839.1960676,-1000.0,-859.86328125,224.609375,-280.2734375,0.0
1695232839.199966,-224.609375,-374.51171875,236.328125,-811.5234375,0.0
1695232839.2038643,-809.5703125,398.4375,252.44140625,382.8125,0.0
1695232839.2077627,238.28125,87.890625,258.7890625,-1000.0,0.0
1695232839.2116613,-1000.0,-727.5390625,254.8828125,-637.20703125,0.0
1695232839.2155597,-362.3046875,-586.42578125,198.2421875,964.35546875,0.0
1695232839.219458,-845.703125,216.796875,247.55859375,820.80078125,0.0
1695232839.2233565,480.46875,270.01953125,214.35546875,-715.8203125,0.0
1695232839.2272549,-1000.0,-514.6484375,238.28125,-1000.0,0.0
1695232839.2312274,-807.12890625,-737.3046875,198.73046875,242.67578125,0.0
1695232839.2351258,753.41796875,7.32421875,245.1171875,-797.36328125,0.0
1695232839.2390242,-992.67578125,397.4609375,227.05078125,-36.1328125,0.0
1695232839.2429225,-449.21875,-326.171875,223.6328125,-1000.0,0.0
1695232839.2468212,-1000.0,-864.74609375,194.82421875,-184.08203125,0.0
1695232839.2507195,31.73828125,-219.23828125,255.37109375,-859.86328125,0.0
1695232839.254618,-785.64453125,443.84765625,307.12890625,146.97265625,0.0
1695232839.2585163,117.1875,-99.12109375,283.203125,-1000.0,0.0
1695232839.2624147,-1000.0,-845.21484375,182.6171875,-356.93359375,0.0
1695232839.266313,-251.953125,-448.73046875,228.515625,-844.7265625,0.0
1695232839.2702117,-807.6171875,342.28515625,253.90625,479.00390625,0.0
1695232839.27411,248.53515625,141.6015625,173.828125,-1000.0,0.0
1695232839.2780843,-1000.0,-669.921875,206.54296875,-779.296875,0.0
1695232839.281983,-470.21484375,-654.78515625,227.05078125,800.29296875,0.0
1695232839.2858813,-905.2734375,119.62890625,270.5078125,961.42578125,0.0
1695232839.2897797,610.3515625,291.9921875,183.59375,-524.90234375,0.0
1695232839.293678,-944.3359375,-476.5625,210.9375,-1000.0,0.0
1695232839.2975764,-1000.0,-823.2421875,238.28125,79.58984375,0.0
1695232839.3014748,464.35546875,-110.3515625,312.01171875,-780.2734375,0.0
1695232839.3053734,-891.6015625,392.578125,212.890625,110.3515625,0.0
1695232839.3092718,-294.43359375,-285.64453125,182.6171875,-1000.0,0.0
1695232839.3131702,-1000.0,-915.0390625,236.328125,-251.46484375,0.0
1695232839.3170686,-97.65625,-319.3359375,276.3671875,-803.7109375,0.0
1695232839.320967,-802.24609375,421.38671875,220.703125,238.76953125,0.0
1695232839.3249738,145.99609375,-39.0625,199.70703125,-1000.0,0.0
1695232839.3288722,-1000.0,-833.984375,223.6328125,-391.11328125,0.0
1695232839.3327706,-263.671875,-536.1328125,227.5390625,-867.1875,0.0
1695232839.3366692,-813.4765625,266.11328125,266.11328125,581.0546875,0.0
1695232839.3405676,324.70703125,178.7109375,221.6796875,-980.95703125,0.0
1695232839.344466,-1000.0,-639.6484375,265.625,-944.82421875,0.0
1695232839.3483644,-624.0234375,-700.68359375,260.7421875,564.94140625,0.0
1695232839.352263,999.0234375,82.03125,279.78515625,-893.5546875,0.0
1695232839.3561614,726.5625,311.5234375,221.19140625,-298.828125,0.0
1695232839.3600597,-833.0078125,-443.84765625,223.6328125,-1000.0,0.0
1695232839.3639581,-1000.0,-848.14453125,155.2734375,-50.78125,0.0
1695232839.3678567,309.08203125,-127.44140625,215.33203125,-785.64453125,0.0
1695232839.3718565,-818.359375,428.22265625,227.5390625,185.05859375,0.0
1695232839.3757548,-103.515625,-217.28515625,209.47265625,-1000.0,0.0
1695232839.3796532,-1000.0,-900.390625,171.875,-261.71875,0.0
1695232839.3835518,-147.4609375,-323.2421875,194.3359375,-805.17578125,0.0
1695232839.3874502,-954.58984375,354.00390625,271.97265625,312.5,0.0
1695232839.3913486,-53.22265625,-81.0546875,260.25390625,-1000.0,0.0
1695232839.395247,-1000.0,-753.41796875,219.23828125,-549.31640625,0.0
1695232839.3991456,-295.8984375,-558.10546875,192.87109375,-979.00390625,0.0
1695232839.403044,-830.56640625,215.8203125,291.015625,799.31640625,0.0
1695232839.4069424,427.734375,217.7734375,272.4609375,-753.90625,0.0
1695232839.4108407,-1000.0,-564.94140625,236.328125,-1000.0,0.0
1695232839.4147394,-748.046875,-741.69921875,218.26171875,390.625,0.0
1695232839.4187326,837.890625,9.27734375,264.6484375,-822.75390625,0.0
1695232839.422631,924.8046875,360.3515625,185.05859375,-135.7421875,0.0
1695232839.4265294,-579.1015625,-364.2578125,183.59375,-1000.0,0.0
1695232839.4304278,-1000.0,-863.76953125,173.828125,-163.0859375,0.0
1695232839.4343264,133.7890625,-197.265625,242.1875,-797.8515625,0.0
1695232839.4382248,-790.52734375,434.08203125,251.46484375,227.5390625,0.0
1695232839.4421232,16.6015625,-148.92578125,217.28515625,-1000.0,0.0
1695232839.4460218,-1000.0,-884.765625,220.21484375,-277.83203125,0.0
1695232839.4499202,-236.81640625,-454.58984375,303.22265625,-810.05859375,0.0
1695232839.4538186,-811.5234375,336.9140625,280.2734375,383.7890625,0.0
1695232839.457717,241.2109375,100.09765625,159.1796875,-1000.0,0.0
1695232839.4616156,-1000.0,-717.28515625,201.171875,-673.33984375,0.0
1695232839.4656014,-427.24609375,-645.01953125,213.37890625,911.62109375,0.0
1695232839.4694998,-875.48828125,141.6015625,265.625,893.06640625,0.0
1695232839.4733982,519.04296875,263.18359375,193.84765625,-631.34765625,0.0
1695232839.4772966,-1000.0,-520.99609375,229.00390625,-1000.0,0.0
1695232839.4811952,-911.62109375,-802.734375,212.40234375,224.12109375,0.0
1695232839.4850936,642.08984375,-56.640625,265.13671875,-789.0625,0.0
1695232839.488992,976.07421875,382.32421875,225.09765625,6.8359375,0.0
1695232839.4928906,-497.0703125,-337.890625,243.1640625,-1000.0,0.0
1695232839.496789,-1000.0,-915.0390625,242.1875,-198.73046875,0.0
1695232839.5006874,-38.0859375,-268.06640625,222.16796875,-800.78125,0.0
1695232839.504586,-801.7578125,429.19921875,210.44921875,235.3515625,0.0
1695232839.5084844,111.328125,-93.75,223.14453125,-1000.0,0.0
1695232839.5124729,-1000.0,-873.53515625,222.16796875,-403.3203125,0.0
1695232839.5163713,-251.953125,-509.765625,214.84375,-864.74609375,0.0
1695232839.5202696,-802.734375,299.8046875,256.34765625,514.16015625,0.0
1695232839.5241683,242.1875,131.8359375,222.16796875,-1000.0,0.0
1695232839.5280666,-1000.0,-683.10546875,235.3515625,-797.8515625,0.0
1695232839.531965,-432.6171875,-689.453125,238.28125,772.94921875,0.0
1695232839.5358636,-944.82421875,96.19140625,260.25390625,-973.14453125,0.0
1695232839.539762,631.8359375,292.48046875,254.8828125,-413.57421875,0.0
1695232839.5436604,-920.41015625,-465.8203125,273.92578125,-1000.0,0.0
1695232839.547559,-1000.0,-808.10546875,178.7109375,9.27734375,0.0
1695232839.5514574,395.99609375,-98.6328125,265.13671875,-781.25,0.0
1695232839.5553558,-849.609375,420.8984375,240.72265625,165.0390625,0.0
1695232839.5593376,-200.68359375,-244.62890625,205.078125,-1000.0,0.0
1695232839.563236,-1000.0,-890.13671875,186.03515625,-257.8125,0.0
1695232839.5671346,-147.4609375,-324.70703125,231.93359375,-802.24609375,0.0
1695232839.571033,-801.7578125,412.59765625,231.4453125,252.9296875,0.0
1695232839.5749314,200.1953125,-3.90625,203.61328125,-1000.0,0.0
1695232839.57883,-1000.0,-806.640625,241.69921875,-440.4296875,0.0
1695232839.5827284,-280.76171875,-570.80078125,280.76171875,-894.53125,0.0
1695232839.5866268,-814.453125,219.7265625,292.48046875,637.20703125,0.0
1695232839.5905254,361.81640625,189.453125,173.33984375,-916.015625,0.0
1695232839.5944238,-1000.0,-600.09765625,189.94140625,-1000.0,0.0
1695232839.5983222,-675.78125,-729.4921875,233.3984375,443.84765625,0.0
1695232839.6022208,933.59375,35.15625,285.15625,-864.74609375,0.0
1695232839.6061945,818.359375,354.4921875,178.7109375,-253.41796875,0.0
1695232839.610093,-731.4453125,-389.6484375,203.61328125,-1000.0,0.0
1695232839.6139915,-1000.0,-846.19140625,217.28515625,-80.56640625,0.0
1695232839.61789,252.9296875,-144.04296875,257.32421875,-781.73828125,0.0
1695232839.6217885,-806.640625,448.73046875,223.6328125,177.24609375,0.0
1695232839.625687,-61.03515625,-185.546875,215.8203125,-1000.0,0.0
1695232839.6295853,-1000.0,-916.015625,282.71484375,-174.8046875,0.0
1695232839.633484,-224.609375,-419.43359375,314.94140625,-816.40625,0.0
1695232839.6373823,-812.01171875,384.765625,210.9375,329.58984375,0.0
1695232839.641281,234.375,48.828125,197.75390625,-1000.0,0.0
1695232839.6451793,-1000.0,-764.6484375,231.4453125,-628.90625,0.0
1695232839.6490777,-357.91015625,-605.46875,194.3359375,979.00390625,0.0
1695232839.6530442,-843.26171875,187.01171875,252.9296875,759.765625,0.0
1695232839.6569428,462.40234375,226.07421875,231.4453125,-796.875,0.0
1695232839.6608412,-1000.0,-559.5703125,248.53515625,-1000.0,0.0
1695232839.6647398,-811.5234375,-759.765625,196.2890625,267.578125,0.0
1695232839.6686382,757.32421875,-10.7421875,249.0234375,-799.31640625,0.0
1695232839.6725366,975.09765625,372.0703125,243.65234375,-36.62109375,0.0
1695232839.6764352,-502.9296875,-360.83984375,263.18359375,-1000.0,0.0
1695232839.6803336,-1000.0,-886.71875,177.24609375,-202.1484375,0.0
1695232839.6842322,47.8515625,-212.890625,226.5625,-802.24609375,0.0
1695232839.6881306,-790.52734375,439.453125,291.9921875,233.88671875,0.0
1695232839.692029,74.70703125,-123.53515625,250.9765625,-1000.0,0.0
1695232839.6959276,-1000.0,-864.2578125,205.56640625,-338.8671875,0.0
1695232839.6999269,-246.09375,-459.47265625,244.62890625,-833.984375,0.0
1695232839.7038252,-811.03515625,328.125,254.8828125,456.54296875,0.0
1695232839.7077239,240.72265625,112.79296875,213.37890625,-1000.0,0.0
1695232839.7116222,-1000.0,-688.96484375,207.51953125,-777.34375,0.0
1695232839.7155209,-476.5625,-650.87890625,190.91796875,799.31640625,0.0
1695232839.7194192,-905.76171875,116.2109375,259.765625,953.61328125,0.0
1695232839.7233176,594.23828125,262.20703125,234.86328125,-538.0859375,0.0
1695232839.7272162,-977.5390625,-505.37109375,235.3515625,-1000.0,0.0
1695232839.7311146,-969.7265625,-811.03515625,176.7578125,90.33203125,0.0
1695232839.7350132,516.6015625,-89.35546875,283.69140625,-789.0625,0.0
1695232839.7389116,-880.859375,399.90234375,212.890625,47.8515625,0.0
1695232839.7428102,-270.5078125,-277.34375,188.96484375,-1000.0,0.0
1695232839.7468112,-1000.0,-883.7890625,200.68359375,-243.65234375,0.0
1695232839.7507098,-93.75,-270.99609375,233.88671875,-810.05859375,0.0
1695232839.7546082,-794.43359375,447.265625,231.4453125,241.69921875,0.0
1695232839.7585065,181.640625,-30.76171875,208.984375,-1000.0,0.0
1695232839.7624052,-1000.0,-819.3359375,232.421875,-432.12890625,0.0
1695232839.7663035,-259.765625,-512.20703125,261.23046875,-880.37109375,0.0
1695232839.7702022,-807.12890625,289.55078125,262.20703125,560.546875,0.0
1695232839.7741005,303.22265625,181.640625,175.78125,-1000.0,0.0
1695232839.7779992,-1000.0,-638.18359375,253.90625,-837.890625,0.0
1695232839.7818975,-574.70703125,-711.9140625,275.87890625,723.6328125,0.0
1695232839.7857962,-971.19140625,70.80078125,253.41796875,-969.7265625,0.0
1695232839.7896945,706.0546875,311.5234375,155.76171875,-404.78515625,0.0
1695232839.7936883,-836.42578125,-449.21875,208.984375,-1000.0,0.0
1695232839.797587,-1000.0,-841.30859375,198.2421875,-54.6875,0.0
1695232839.8014853,285.15625,-121.58203125,228.02734375,-769.04296875,0.0
1695232839.805384,-815.91796875,436.03515625,205.56640625,113.76953125,0.0
1695232839.8092823,-109.86328125,-209.47265625,200.68359375,-1000.0,0.0
1695232839.813181,-1000.0,-876.46484375,221.19140625,20.5078125,0.0
1695232839.8170793,-189.94140625,-343.26171875,259.765625,-826.66015625,0.0
1695232839.820978,-804.6875,415.0390625,243.1640625,272.94921875,0.0
1695232839.8248763,225.09765625,15.625,255.859375,-1000.0,0.0
1695232839.828775,-1000.0,-791.50390625,246.09375,-531.25,0.0
1695232839.8326733,-300.29296875,-560.546875,184.08203125,-941.40625,0.0
1695232839.836572,-820.3125,230.46875,240.234375,676.7578125,0.0
1695232839.8405585,416.9921875,217.7734375,192.87109375,-875.0,0.0
1695232839.8444571,-1000.0,-558.59375,206.54296875,-1000.0,0.0
1695232839.8483555,-756.34765625,-717.28515625,143.06640625,328.125,0.0
1695232839.8522542,835.44921875,25.87890625,215.8203125,-820.80078125,0.0
1695232839.8561525,902.34375,362.3046875,206.0546875,-141.11328125,0.0
1695232839.8600512,-621.58203125,-374.51171875,228.515625,-1000.0,0.0
1695232839.8639495,-1000.0,-852.5390625,192.3828125,-138.671875,0.0
1695232839.8678482,166.50390625,-177.734375,255.859375,-793.9453125,0.0
1695232839.8717465,-789.55078125,423.33984375,284.66796875,226.07421875,0.0
1695232839.8756452,18.06640625,-154.78515625,208.49609375,-1000.0,0.0
1695232839.8795435,-1000.0,-862.3046875,140.13671875,-301.26953125,0.0
1695232839.8834422,-240.72265625,-413.57421875,210.9375,-817.3828125,0.0
1695232839.8874218,-812.01171875,370.60546875,253.90625,356.93359375,0.0
1695232839.8913205,238.76953125,97.16796875,163.57421875,-1000.0,0.0
1695232839.8952188,-1000.0,-716.30859375,184.5703125,-706.0546875,0.0
1695232839.8991175,-413.57421875,-615.234375,198.2421875,913.0859375,0.0
1695232839.903016,-870.60546875,182.6171875,241.69921875,787.109375,0.0
1695232839.9069145,528.80859375,276.85546875,221.19140625,-784.1796875,0.0
1695232839.910813,-1000.0,-508.30078125,235.83984375,-1000.0,0.0
1695232839.9147115,-863.28125,-776.85546875,251.953125,210.44921875,0.0
1695232839.91861,679.6875,-30.2734375,308.10546875,-801.7578125,0.0
1695232839.9225085,-959.47265625,412.59765625,155.2734375,-52.24609375,0.0
1695232839.926407,-399.4140625,-319.82421875,192.3828125,-1000.0,0.0
1695232839.9303055,-1000.0,-890.625,214.84375,-202.63671875,0.0
1695232839.9342978,-11.23046875,-238.28125,234.86328125,-807.12890625,0.0
1695232839.9381964,-789.0625,449.21875,194.3359375,237.3046875,0.0
1695232839.9420948,131.8359375,-89.84375,184.5703125,-1000.0,0.0
1695232839.9459934,-1000.0,-863.76953125,205.56640625,-396.484375,0.0
1695232839.9498918,-253.90625,-479.4921875,216.796875,-858.3984375,0.0
1695232839.9537904,-808.10546875,326.66015625,252.44140625,483.3984375,0.0
1695232839.9576888,266.6015625,146.97265625,221.6796875,-1000.0,0.0
1695232839.9615874,-1000.0,-677.734375,239.74609375,-837.890625,0.0
1695232839.965486,-513.671875,-663.0859375,166.9921875,726.5625,0.0
1695232839.9693844,-929.6875,129.8828125,243.1640625,974.609375,0.0
1695232839.973283,641.6015625,309.08203125,205.56640625,-509.27734375,0.0
1695232839.9771814,-920.8984375,-453.61328125,208.49609375,-1000.0,0.0
1695232839.9811575,-1000.0,-791.015625,137.6953125,13.671875,0.0
1695232839.9850562,422.36328125,-68.359375,214.84375,-787.109375,0.0
1695232839.9889545,-849.609375,431.15234375,233.88671875,133.30078125,0.0
1695232839.9928532,-204.58984375,-251.46484375,201.66015625,-1000.0,0.0
1695232839.9967515,-1000.0,-876.46484375,165.0390625,-254.39453125,0.0
1695232840.0006502,-131.8359375,-297.36328125,241.69921875,-806.15234375,0.0
1695232840.0045488,-799.31640625,417.48046875,318.84765625,270.99609375,0.0
1695232840.0084472,193.84765625,-22.94921875,248.53515625,-1000.0,0.0
1695232840.0123458,-1000.0,-793.9453125,175.78125,-496.58203125,0.0
1695232840.0162442,-274.4140625,-527.83203125,221.19140625,-907.71484375,0.0
1695232840.0201428,-812.01171875,260.7421875,252.44140625,585.9375,0.0
1695232840.0240414,360.3515625,203.61328125,166.50390625,-968.26171875,0.0
1695232840.0280101,-1000.0,-584.9609375,179.19921875,-1000.0,0.0
1695232840.0319085,-658.69140625,-696.77734375,194.3359375,442.3828125,0.0
1695232840.0358071,952.1484375,58.59375,267.578125,-894.53125,0.0
1695232840.0397055,805.17578125,357.421875,158.69140625,-322.265625,0.0
1695232840.0436041,-744.62890625,-399.4140625,181.640625,-1000.0,0.0
1695232840.0475028,-1000.0,-847.65625,234.86328125,-59.08203125,0.0
1695232840.0514011,259.765625,-141.6015625,293.45703125,-789.0625,0.0
1695232840.0552998,-804.19921875,444.3359375,136.71875,184.08203125,0.0
1695232840.0591981,-62.98828125,-178.22265625,106.93359375,-1000.0,0.0
1695232840.0630968,-1000.0,-878.90625,239.74609375,-272.4609375,0.0
1695232840.0669954,-213.8671875,-374.51171875,268.5546875,-810.05859375,0.0
1695232840.0708938,-808.10546875,413.57421875,207.03125,283.69140625,0.0
1695232840.0748935,231.93359375,66.89453125,150.390625,-1000.0,0.0
1695232840.078792,-1000.0,-758.7890625,195.80078125,-601.5625,0.0
1695232840.0826905,-330.56640625,-587.40234375,213.37890625,-996.09375,0.0
1695232840.086589,-832.03125,223.14453125,239.74609375,700.1953125,0.0
1695232840.0904877,446.77734375,257.32421875,155.2734375,-859.86328125,0.0
1695232840.094386,-1000.0,-543.9453125,216.796875,-1000.0,0.0
1695232840.0982847,-767.578125,-742.1875,238.28125,290.0390625,0.0
1695232840.102183,805.17578125,17.08984375,263.671875,-821.77734375,0.0
1695232840.1060817,965.33203125,385.25390625,187.01171875,-128.90625,0.0
1695232840.1099803,-515.13671875,-353.515625,227.5390625,-1000.0,0.0
1695232840.1138787,-1000.0,-859.86328125,166.015625,-196.77734375,0.0
1695232840.1177773,81.54296875,-181.640625,181.15234375,-810.05859375,0.0
1695232840.1217706,-786.62109375,459.47265625,209.9609375,230.46875,0.0
1695232840.1256692,78.125,-110.83984375,191.89453125,-1000.0,0.0
1695232840.1295679,-1000.0,-846.6796875,157.2265625,-347.65625,0.0
1695232840.1334662,-247.55859375,-409.66796875,168.45703125,-837.40234375,0.0
1695232840.1373649,-808.10546875,375.9765625,238.28125,404.296875,0.0
1695232840.1412635,240.234375,124.0234375,221.19140625,-1000.0,0.0
1695232840.1451619,-1000.0,-684.08203125,215.8203125,-742.67578125,0.0
1695232840.1490605,-423.33984375,-612.79296875,162.59765625,818.359375,0.0
1695232840.152959,-881.8359375,157.2265625,282.71484375,954.58984375,0.0
1695232840.1568575,583.49609375,272.4609375,272.4609375,-526.3671875,0.0
1695232840.160756,-992.67578125,-480.95703125,204.1015625,-1000.0,0.0
1695232840.1646547,-919.921875,-764.16015625,92.7734375,87.890625,0.0
1695232840.1686506,594.7265625,-43.45703125,207.03125,-795.41015625,0.0
1695232840.1725492,-896.484375,416.50390625,174.31640625,1.953125,0.0
1695232840.1764476,-305.17578125,-278.80859375,147.4609375,-1000.0,0.0
1695232840.1803463,-1000.0,-863.76953125,153.80859375,-236.81640625,0.0
1695232840.1842449,-6.34765625,-241.69921875,215.8203125,-810.546875,0.0
1695232840.1881433,-781.25,461.9140625,248.53515625,239.74609375,0.0
1695232840.1920419,158.203125,-28.80859375,212.40234375,-1000.0,0.0
1695232840.1959405,-1000.0,-797.8515625,207.51953125,-368.1640625,0.0
1695232840.1998389,-259.765625,-478.515625,263.18359375,-849.12109375,0.0
1695232840.2037375,-806.640625,313.4765625,270.5078125,508.30078125,0.0
1695232840.207636,305.17578125,200.68359375,89.35546875,-1000.0,0.0
1695232840.2115345,-1000.0,-609.86328125,159.66796875,-909.66796875,0.0
1695232840.2155244,-543.45703125,-666.015625,245.1171875,622.55859375,0.0
1695232840.219423,-954.58984375,112.79296875,254.39453125,-961.9140625,0.0
1695232840.2233217,713.8671875,345.21484375,126.46484375,-431.640625,0.0
1695232840.2272203,-861.328125,-426.7578125,176.7578125,-1000.0,0.0
1695232840.2311187,-1000.0,-806.640625,165.52734375,19.04296875,0.0
1695232840.2350173,424.31640625,-82.03125,228.515625,-783.203125,0.0
1695232840.238916,-817.3828125,458.0078125,208.0078125,142.08984375,0.0
1695232840.2428143,-111.81640625,-209.9609375,220.703125,-1000.0,0.0
1695232840.246713,-1000.0,-876.46484375,243.1640625,-255.37109375,0.0
1695232840.2506115,-140.625,-298.33984375,229.98046875,-807.12890625,0.0
1695232840.25451,-792.48046875,466.796875,203.125,262.20703125,0.0
1695232840.2584085,219.7265625,48.33984375,182.6171875,-1000.0,0.0
1695232840.2623923,-1000.0,-762.20703125,196.77734375,-527.83203125,0.0
1695232840.266291,-278.80859375,-519.53125,170.41015625,-937.98828125,0.0
1695232840.2701895,-811.5234375,283.69140625,229.4921875,655.2734375,0.0
1695232840.2740881,400.87890625,247.55859375,195.3125,-920.41015625,0.0
1695232840.2779865,-1000.0,-548.828125,207.03125,-1000.0,0.0
1695232840.2818851,-660.15625,-690.91796875,217.28515625,424.31640625,0.0
1695232840.2857838,930.6640625,66.40625,267.08984375,-839.84375,0.0
1695232840.2896821,882.8125,375.0,253.41796875,-174.31640625,0.0
1695232840.2935808,-644.53125,-374.0234375,260.7421875,-1000.0,0.0
1695232840.2974794,-1000.0,-820.3125,120.60546875,-140.625,0.0
1695232840.301378,257.32421875,-131.34765625,211.42578125,-796.38671875,0.0
1695232840.3052764,-790.52734375,469.7265625,220.703125,219.23828125,0.0
1695232840.3092523,0.48828125,-142.578125,178.7109375,-1000.0,0.0
1695232840.313151,-1000.0,-859.375,145.99609375,-286.1328125,0.0
1695232840.3170495,-226.07421875,-387.20703125,180.6640625,-804.19921875,0.0
1695232840.320948,-805.6640625,394.53125,222.16796875,322.265625,0.0
1695232840.3248465,236.328125,81.0546875,140.625,-1000.0,0.0
1695232840.3287451,-1000.0,-738.76953125,193.359375,-495.60546875,0.0
1695232840.3326437,-348.14453125,-598.6328125,241.69921875,999.51171875,0.0
1695232840.3365421,-841.30859375,191.40625,263.18359375,791.9921875,0.0
1695232840.3404408,499.51171875,279.78515625,114.2578125,-734.86328125,0.0
1695232840.3443394,-1000.0,-495.60546875,140.625,-1000.0,0.0
1695232840.348238,-796.875,-737.3046875,193.359375,239.74609375,0.0
1695232840.3521364,763.18359375,8.30078125,259.27734375,-802.734375,0.0
1695232840.356114,-976.07421875,415.52734375,154.296875,-64.453125,0.0
1695232840.3600125,-421.875,-314.94140625,170.8984375,-1000.0,0.0
1695232840.3639112,-1000.0,-873.53515625,175.29296875,-203.125,0.0
1695232840.3678095,44.921875,-223.14453125,221.19140625,-803.22265625,0.0
1695232840.3717082,-783.69140625,447.265625,194.82421875,234.86328125,0.0
1695232840.3756068,111.81640625,-104.00390625,166.9921875,-1000.0,0.0
1695232840.3795054,-1000.0,-885.7421875,270.01953125,-282.71484375,0.0
1695232840.383404,-251.953125,-471.6796875,282.2265625,-877.44140625,0.0
1695232840.3873024,-807.6171875,355.46875,216.30859375,375.9765625,0.0
1695232840.391201,259.765625,138.18359375,219.23828125,-1000.0,0.0
1695232840.3950996,-1000.0,-668.9453125,221.6796875,-769.53125,0.0
1695232840.3989983,-470.703125,-642.08984375,143.5546875,809.5703125,0.0
1695232840.4029696,-908.69140625,144.04296875,217.28515625,956.0546875,0.0
1695232840.4068682,637.6953125,312.01171875,192.87109375,-526.85546875,0.0
1695232840.4107668,-937.98828125,-460.44921875,203.61328125,-1000.0,0.0
1695232840.4146655,-979.00390625,-785.64453125,135.7421875,66.89453125,0.0
1695232840.4185638,512.20703125,-58.10546875,205.078125,-782.2265625,0.0
1695232840.4224625,-867.67578125,422.8515625,229.98046875,111.328125,0.0
1695232840.426361,-245.60546875,-278.3203125,253.41796875,-1000.0,0.0
1695232840.4302597,-1000.0,-888.18359375,144.04296875,-251.46484375,0.0
1695232840.434158,-80.56640625,-274.4140625,147.94921875,-804.6875,0.0
1695232840.4380567,-789.0625,442.87109375,220.703125,242.1875,0.0
1695232840.4419553,195.3125,-20.99609375,186.03515625,-1000.0,0.0
1695232840.445854,-1000.0,-807.6171875,194.3359375,-411.62109375,0.0
1695232840.4498272,-264.6484375,-518.06640625,224.609375,-877.9296875,0.0
1695232840.4537258,-806.640625,278.80859375,230.95703125,598.6328125,0.0
1695232840.4576244,344.23828125,181.15234375,126.953125,-971.19140625,0.0
1695232840.461523,-1000.0,-619.140625,160.15625,-944.82421875,0.0
1695232840.4654214,-615.72265625,-692.87109375,146.484375,559.08203125,0.0
1695232840.46932,996.58203125,67.3828125,232.421875,-881.8359375,0.0
1695232840.4732187,748.046875,316.40625,183.59375,-275.390625,0.0
1695232840.4771173,-807.6171875,-437.01171875,191.40625,-1000.0,0.0
1695232840.481016,-1000.0,-843.75,157.71484375,-36.1328125,0.0
1695232840.4849145,308.59375,-146.484375,243.65234375,-781.25,0.0
1695232840.488813,-819.3359375,418.45703125,194.82421875,184.08203125,0.0
1695232840.4927115,-118.1640625,-212.890625,120.1171875,-1000.0,0.0
1695232840.4967072,-1000.0,-891.6015625,171.38671875,-261.71875,0.0
1695232840.5006058,-196.77734375,-366.69921875,222.16796875,-804.6875,0.0
1695232840.5045044,-808.10546875,386.71875,225.09765625,301.26953125,0.0
1695232840.508403,223.14453125,21.484375,164.0625,-1000.0,0.0
1695232840.5123014,-1000.0,-785.64453125,212.890625,-546.38671875,0.0
1695232840.5162,-312.5,-605.95703125,260.7421875,-957.03125,0.0
1695232840.5200987,-824.70703125,194.3359375,260.25390625,722.16796875,0.0
1695232840.5239973,392.08984375,206.0546875,90.8203125,-871.58203125,0.0
1695232840.527896,-1000.0,-598.14453125,178.7109375,-994.62890625,0.0
1695232840.5317945,-744.140625,-775.390625,263.18359375,493.1640625,0.0
1695232840.5356932,843.26171875,-0.48828125,222.65625,-844.23828125,0.0
1695232840.5395916,888.18359375,355.95703125,134.765625,-166.9921875,0.0
1695232840.5435805,-620.60546875,-384.27734375,192.87109375,-1000.0,0.0
1695232840.5474792,-1000.0,-879.8828125,152.34375,-160.64453125,0.0
1695232840.5513778,116.2109375,-197.75390625,189.453125,-800.78125,0.0
1695232840.5552764,-802.734375,438.4765625,184.08203125,224.609375,0.0
1695232840.559175,-20.01953125,-154.296875,160.64453125,-1000.0,0.0
1695232840.5630736,-1000.0,-890.13671875,200.68359375,-294.43359375,0.0
1695232840.566972,-235.83984375,-440.4296875,246.09375,-816.40625,0.0
1695232840.5708706,-816.40625,348.14453125,236.328125,400.390625,0.0
1695232840.5747693,226.07421875,65.91796875,238.28125,-1000.0,0.0
1695232840.5786679,-1000.0,-752.9296875,242.67578125,-678.22265625,0.0
1695232840.5825665,-422.36328125,-646.97265625,131.34765625,921.38671875,0.0
1695232840.5864651,-876.46484375,131.8359375,229.00390625,854.4921875,0.0
1695232840.590456,534.1796875,234.86328125,188.4765625,-664.55078125,0.0
1695232840.5943546,-1000.0,-520.99609375,180.17578125,-1000.0,0.0
1695232840.5982533,-923.828125,-782.71484375,110.83984375,164.55078125,0.0
1695232840.6021519,613.28125,-53.22265625,213.37890625,-790.0390625,0.0
1695232840.6060505,-974.12109375,382.32421875,178.7109375,12.20703125,0.0
1695232840.609949,-432.12890625,-318.359375,174.8046875,-1000.0,0.0
1695232840.6138477,-1000.0,-875.9765625,160.15625,-212.40234375,0.0
1695232840.6177464,-23.4375,-251.953125,216.30859375,-802.734375,0.0
1695232840.621645,-792.48046875,421.38671875,246.09375,235.83984375,0.0
1695232840.6255434,126.953125,-80.56640625,150.390625,-1000.0,0.0
1695232840.629442,-1000.0,-846.6796875,150.87890625,-375.48828125,0.0
1695232840.6333406,-253.41796875,-500.9765625,203.61328125,-852.05078125,0.0
1695232840.637325,-809.5703125,293.9453125,242.67578125,507.32421875,0.0
1695232840.6412234,274.90234375,138.671875,95.703125,-1000.0,0.0
1695232840.645122,-1000.0,-676.26953125,141.6015625,-843.26171875,0.0
1695232840.6490207,-544.921875,-701.171875,190.91796875,701.171875,0.0
1695232840.6529193,-945.80078125,80.56640625,244.140625,-958.0078125,0.0
1695232840.656818,655.76171875,289.55078125,195.80078125,-414.55078125,0.0
1695232840.6607165,-917.48046875,-471.19140625,202.1484375,-1000.0,0.0
1695232840.6646152,-1000.0,-834.47265625,242.1875,79.1015625,0.0
1695232840.6685138,423.828125,-110.83984375,292.48046875,-774.90234375,0.0
1695232840.6724124,-854.4921875,420.8984375,154.78515625,123.046875,0.0
1695232840.676311,-206.54296875,-261.23046875,173.828125,-1000.0,0.0
1695232840.6802096,-1000.0,-911.62109375,181.640625,-254.39453125,0.0
1695232840.6841874,-156.25,-331.0546875,196.2890625,-806.15234375,0.0
1695232840.6880858,-806.15234375,407.2265625,184.08203125,260.7421875,0.0
1695232840.6919844,188.96484375,-31.73828125,157.71484375,-1000.0,0.0
1695232840.695883,-1000.0,-837.890625,197.265625,-464.35546875,0.0
1695232840.6997817,-270.99609375,-556.640625,174.31640625,-947.75390625,0.0
1695232840.7036803,-812.5,242.67578125,233.3984375,606.4453125,0.0
1695232840.707579,319.3359375,153.3203125,201.66015625,-919.43359375,0.0
1695232840.7114775,-1000.0,-651.85546875,225.5859375,-970.703125,0.0
1695232840.7153761,-669.43359375,-750.48828125,134.765625,524.90234375,0.0
1695232840.7192748,932.6171875,26.85546875,192.87109375,-861.328125,0.0
1695232840.7231734,791.015625,321.2890625,212.890625,-226.07421875,0.0
1695232840.727072,-740.72265625,-425.29296875,216.30859375,-1000.0,0.0
1695232840.7310424,-1000.0,-862.79296875,124.0234375,-78.125,0.0
1695232840.734941,203.125,-162.59765625,189.94140625,-785.64453125,0.0
1695232840.7388396,-811.03515625,427.734375,212.890625,205.078125,0.0
1695232840.7427382,-88.8671875,-195.3125,178.22265625,-1000.0,0.0
1695232840.7466369,-1000.0,-898.4375,126.953125,-268.06640625,0.0
1695232840.7505355,-214.84375,-402.34375,164.0625,-808.10546875,0.0
1695232840.754434,-812.98828125,354.98046875,287.109375,413.57421875,0.0
1695232840.7583327,228.515625,26.3671875,253.90625,-1000.0,0.0
1695232840.7622313,-1000.0,-757.32421875,161.62109375,-597.65625,0.0
1695232840.76613,-361.81640625,-607.421875,168.9453125,-981.4453125,0.0
1695232840.7700286,-844.7265625,179.6875,240.72265625,775.390625,0.0
1695232840.7739272,428.22265625,229.00390625,91.30859375,-770.01953125,0.0
1695232840.7779114,-1000.0,-564.453125,143.5546875,-1000.0,0.0
1695232840.78181,-812.98828125,-780.2734375,186.5234375,296.38671875,0.0
1695232840.7857087,796.38671875,-32.71484375,225.5859375,-804.6875,0.0
1695232840.7896073,835.44921875,335.44921875,152.83203125,-83.984375,0.0
1695232840.793506,-683.10546875,-405.2734375,177.24609375,-1000.0,0.0
1695232840.7974045,-1000.0,-916.50390625,214.35546875,-145.01953125,0.0
1695232840.8013031,42.48046875,-261.23046875,267.578125,-791.015625,0.0
1695232840.8052018,-801.7578125,387.6953125,178.7109375,225.5859375,0.0
1695232840.8091004,34.1796875,-166.50390625,123.53515625,-1000.0,0.0
1695232840.812999,-1000.0,-912.109375,198.73046875,-310.05859375,0.0
1695232840.8168976,-240.234375,-487.3046875,246.58203125,-822.265625,0.0
1695232840.8207963,-814.453125,308.10546875,217.28515625,439.94140625,0.0
1695232840.8247716,230.46875,75.68359375,142.578125,-1000.0,0.0
1695232840.8286703,-1000.0,-739.2578125,204.1015625,-711.9140625,0.0
1695232840.832569,-466.796875,-686.5234375,207.51953125,878.90625,0.0
1695232840.8364675,-892.578125,113.28125,217.7734375,911.1328125,0.0
1695232840.8403661,479.00390625,244.62890625,104.4921875,-635.7421875,0.0
1695232840.8442647,-1000.0,-533.203125,181.640625,-1000.0,0.0
1695232840.8481634,-961.42578125,-826.171875,216.796875,276.3671875,0.0
1695232840.852062,514.6484375,-107.421875,249.51171875,-789.55078125,0.0
1695232840.8559606,-936.5234375,352.5390625,201.66015625,92.28515625,0.0
1695232840.8598592,-368.65234375,-355.95703125,225.09765625,-1000.0,0.0
1695232840.8637578,-1000.0,-941.89453125,140.625,-240.234375,0.0
1695232840.8676565,-91.796875,-308.59375,140.625,-800.78125,0.0
1695232840.8716536,-804.19921875,401.3671875,198.2421875,236.81640625,0.0
1695232840.8755522,137.20703125,-81.0546875,187.5,-1000.0,0.0
1695232840.8794508,-1000.0,-854.4921875,163.57421875,-368.1640625,0.0
1695232840.8833494,-252.44140625,-526.85546875,141.6015625,-861.81640625,0.0
1695232840.887248,-810.546875,266.11328125,224.609375,600.5859375,0.0
1695232840.8911467,274.90234375,128.90625,233.3984375,-991.69921875,0.0
1695232840.8950453,-1000.0,-666.015625,222.16796875,-850.5859375,0.0
1695232840.898944,-608.3984375,-708.49609375,94.7265625,666.50390625,0.0
1695232840.9028425,-990.234375,46.875,242.1875,-861.81640625,0.0
1695232840.9067411,657.71484375,268.06640625,282.2265625,-197.75390625,0.0
1695232840.9106398,-905.2734375,-469.23828125,193.84765625,-1000.0,0.0
1695232840.9145384,-1000.0,-842.28515625,96.19140625,20.99609375,0.0
1695232840.9185286,344.7265625,-137.20703125,215.8203125,-767.08984375,0.0
1695232840.9224272,-857.91015625,395.99609375,151.85546875,180.6640625,0.0
1695232840.9263258,-213.37890625,-257.8125,98.14453125,-1000.0,0.0
1695232840.9302244,-1000.0,-908.69140625,135.25390625,-265.13671875,0.0
1695232840.934123,-178.7109375,-362.79296875,170.41015625,-800.29296875,0.0
1695232840.9380217,-812.01171875,386.71875,236.81640625,333.49609375,0.0
1695232840.9419203,205.078125,-1.953125,191.40625,-1000.0,0.0
1695232840.945819,-1000.0,-800.29296875,181.640625,-435.546875,0.0
1695232840.9497175,-308.10546875,-590.8203125,245.60546875,-905.76171875,0.0
1695232840.9536164,-824.21875,212.890625,274.4140625,734.86328125,0.0
1695232840.957515,347.65625,208.0078125,59.08203125,-833.0078125,0.0
1695232840.9614136,-1000.0,-597.16796875,134.27734375,-975.5859375,0.0
1695232840.9653966,-716.796875,-749.51171875,193.84765625,526.3671875,0.0
1695232840.9692953,902.34375,12.20703125,216.30859375,-828.125,0.0
1695232840.973194,760.25390625,327.63671875,108.3984375,-135.7421875,0.0
1695232840.9770925,-775.87890625,-428.7109375,142.578125,-1000.0,0.0
1695232840.9809911,-1000.0,-897.94921875,140.13671875,-50.78125,0.0
1695232840.9848897,154.78515625,-209.9609375,211.42578125,-772.94921875,0.0
1695232840.9887884,-819.3359375,409.66796875,173.33984375,211.9140625,0.0
1695232840.992687,-83.49609375,-204.58984375,150.87890625,-1000.0,0.0
1695232840.9965858,-1000.0,-939.453125,225.09765625,-269.53125,0.0
1695232841.0004845,-225.5859375,-443.359375,201.66015625,-806.15234375,0.0
1695232841.004383,-818.84765625,343.75,204.1015625,416.50390625,0.0
1695232841.0082817,217.7734375,31.25,190.4296875,-1000.0,0.0
1695232841.012268,-1000.0,-773.4375,208.49609375,-578.61328125,0.0
1695232841.0161667,-406.25,-644.53125,141.6015625,985.83984375,0.0
1695232841.0200653,-864.74609375,138.671875,234.86328125,906.73828125,0.0
1695232841.023964,416.015625,205.56640625,216.30859375,-594.7265625,0.0
1695232841.0278625,-1000.0,-574.21875,209.47265625,-1000.0,0.0
1695232841.0317612,-879.8828125,-809.5703125,180.6640625,293.9453125,0.0
1695232841.03566,691.40625,-68.359375,235.83984375,-781.73828125,0.0
1695232841.0395586,870.60546875,331.0546875,270.5078125,48.33984375,0.0
1695232841.0434573,-640.625,-393.5546875,267.578125,-1000.0,0.0
1695232841.047356,-1000.0,-922.8515625,97.16796875,-187.98828125,0.0
1695232841.0512545,-16.11328125,-279.296875,175.29296875,-789.0625,0.0
1695232841.0551531,-823.2421875,379.8828125,218.26171875,228.02734375,0.0
1695232841.0591326,10.7421875,-157.2265625,148.92578125,-1000.0,0.0
1695232841.0630312,-1000.0,-920.41015625,118.65234375,-320.80078125,0.0
1695232841.0669298,-237.3046875,-543.45703125,163.0859375,-833.0078125,0.0
1695232841.0708284,-818.84765625,255.859375,235.83984375,531.73828125,0.0
1695232841.074727,229.00390625,71.2890625,96.6796875,-1000.0,0.0
1695232841.078626,-1000.0,-741.69921875,166.50390625,-689.453125,0.0
1695232841.0825245,-533.69140625,-729.98046875,243.65234375,890.13671875,0.0
1695232841.0864232,-927.734375,56.15234375,269.53125,994.140625,0.0
1695232841.0903218,501.953125,258.7890625,88.8671875,-443.84765625,0.0
1695232841.0942204,-1000.0,-511.71875,128.90625,-1000.0,0.0
1695232841.098119,-1000.0,-864.2578125,203.61328125,108.88671875,0.0
1695232841.1020176,413.0859375,-129.39453125,256.34765625,-772.4609375,0.0
1695232841.1059902,-990.234375,373.046875,130.37109375,135.25390625,0.0
1695232841.1098888,-451.171875,-329.58984375,101.07421875,-1000.0,0.0
1695232841.1137874,-1000.0,-963.8671875,187.01171875,-248.53515625,0.0
1695232841.1176863,-136.23046875,-364.2578125,225.09765625,-796.875,0.0
1695232841.121585,-837.890625,362.3046875,182.12890625,247.55859375,0.0
1695232841.1254835,61.5234375,-105.95703125,153.3203125,-1000.0,0.0
1695232841.1293821,-1000.0,-911.62109375,259.27734375,-342.28515625,0.0
1695232841.1332808,-266.6015625,-621.09375,286.62109375,-856.4453125,0.0
1695232841.1371794,-825.68359375,190.91796875,221.19140625,633.7890625,0.0
1695232841.141078,273.4375,99.609375,101.07421875,-930.6640625,0.0
1695232841.1449769,-1000.0,-700.68359375,145.01953125,-942.3828125,0.0
1695232841.1488755,-698.2421875,-776.3671875,81.0546875,583.49609375,0.0
1695232841.1528413,941.40625,-2.44140625,157.71484375,-884.765625,0.0
1695232841.15674,577.63671875,261.71875,163.57421875,-277.34375,0.0
1695232841.1606386,-946.77734375,-504.39453125,184.5703125,-1000.0,0.0
1695232841.1645374,-1000.0,-913.57421875,111.328125,-29.78515625,0.0
1695232841.168436,221.6796875,-199.21875,171.38671875,-778.80859375,0.0
1695232841.1723347,-922.8515625,357.421875,229.00390625,192.3828125,0.0
1695232841.1762333,-322.75390625,-300.29296875,231.93359375,-1000.0,0.0
1695232841.180132,-1000.0,-981.4453125,120.1171875,-264.16015625,0.0
1695232841.1840305,-207.03125,-442.87109375,111.328125,-804.19921875,0.0
1695232841.1879294,-833.0078125,316.40625,246.09375,318.84765625,0.0
1695232841.191828,166.015625,-63.96484375,229.98046875,-1000.0,0.0
1695232841.1957266,-1000.0,-871.09375,178.22265625,-552.734375,0.0
1695232841.1997042,-351.5625,-674.31640625,142.578125,-961.9140625,0.0
1695232841.203603,-846.6796875,122.55859375,220.703125,736.328125,0.0
1695232841.2075016,320.3125,138.18359375,95.703125,-818.359375,0.0
1695232841.2114003,-1000.0,-644.53125,119.140625,-1000.0,0.0
1695232841.215299,-832.03125,-823.2421875,118.65234375,346.19140625,0.0
1695232841.2191975,770.01953125,-72.265625,202.63671875,-815.4296875,0.0
1695232841.2230964,728.515625,288.0859375,206.54296875,-105.46875,0.0
1695232841.226995,-809.08203125,-445.80078125,205.56640625,-1000.0,0.0
1695232841.2308936,-1000.0,-940.91796875,117.67578125,-161.1328125,0.0
1695232841.2347922,62.01171875,-264.6484375,224.609375,-796.38671875,0.0
1695232841.2386909,-848.14453125,381.34765625,201.66015625,227.5390625,0.0
1695232841.2425897,-120.1171875,-192.3828125,83.984375,-1000.0,0.0
1695232841.2465994,-1000.0,-937.5,173.828125,-298.33984375,0.0
1695232841.250498,-225.5859375,-497.55859375,253.90625,-817.3828125,0.0
1695232841.2543967,-825.68359375,293.45703125,231.93359375,407.2265625,0.0
1695232841.2582955,212.40234375,33.69140625,112.79296875,-1000.0,0.0
1695232841.2621942,-1000.0,-786.62109375,179.6875,-675.29296875,0.0
1695232841.2660928,-468.26171875,-717.28515625,245.60546875,919.43359375,0.0
1695232841.2699914,-892.578125,80.56640625,250.9765625,877.9296875,0.0
1695232841.2738903,427.734375,214.35546875,68.84765625,-657.2265625,0.0
1695232841.2777889,-1000.0,-572.265625,179.19921875,-1000.0,0.0
1695232841.2816875,-960.9375,-853.02734375,258.7890625,257.32421875,0.0
1695232841.285586,564.453125,-91.796875,230.46875,-790.0390625,0.0
1695232841.2894847,907.2265625,362.79296875,111.81640625,11.23046875,0.0
1695232841.2934775,-597.16796875,-354.98046875,147.94921875,-1000.0,0.0
1695232841.2973762,-1000.0,-934.08203125,137.20703125,-230.46875,0.0
1695232841.3012748,-72.265625,-291.015625,131.34765625,-804.6875,0.0
1695232841.3051734,-828.125,410.64453125,195.3125,236.328125,0.0
1695232841.3090723,30.76171875,-108.88671875,178.7109375,-1000.0,0.0
1695232841.3129709,-1000.0,-892.578125,202.1484375,-343.75,0.0
1695232841.3168695,-238.28125,-544.43359375,244.140625,-841.796875,0.0
1695232841.320768,-819.3359375,252.9296875,238.76953125,525.87890625,0.0
1695232841.324667,235.83984375,81.54296875,209.9609375,-1000.0,0.0
1695232841.3285656,-1000.0,-730.95703125,232.91015625,-868.1640625,0.0
1695232841.3324642,-599.12109375,-734.86328125,92.28515625,675.78125,0.0
1695232841.3363628,-975.09765625,42.96875,191.89453125,-953.61328125,0.0
1695232841.340358,553.22265625,252.44140625,167.48046875,-398.92578125,0.0
1695232841.3442566,-985.3515625,-514.16015625,166.50390625,-1000.0,0.0
1695232841.3481553,-1000.0,-865.234375,93.75,16.6015625,0.0
1695232841.3520539,390.625,-131.8359375,184.5703125,-782.2265625,0.0
1695232841.3559527,-951.171875,382.8125,163.57421875,138.18359375,0.0
1695232841.3598514,-384.765625,-294.43359375,146.484375,-1000.0,0.0
1695232841.36375,-1000.0,-933.10546875,162.59765625,-255.37109375,0.0
1695232841.3676486,-171.38671875,-359.86328125,203.125,-806.15234375,0.0
1695232841.3715475,-824.70703125,377.9296875,233.88671875,277.83203125,0.0
1695232841.375446,152.34375,-33.69140625,114.74609375,-1000.0,0.0
1695232841.3793447,-1000.0,-832.03125,118.1640625,-501.953125,0.0
1695232841.3832436,-286.62109375,-587.40234375,177.24609375,-920.8984375,0.0
1695232841.3872225,-822.75390625,214.35546875,240.234375,647.94921875,0.0
1695232841.3911214,298.33984375,169.43359375,70.3125,-936.03515625,0.0
1695232841.39502,-1000.0,-633.30078125,123.046875,-983.3984375,0.0
1695232841.3989186,-687.01171875,-755.37109375,186.5234375,499.0234375,0.0
1695232841.4028175,935.546875,20.99609375,232.421875,-857.421875,0.0
1695232841.406716,699.70703125,323.2421875,183.10546875,-219.23828125,0.0
1695232841.4106147,-831.54296875,-428.22265625,189.94140625,-1000.0,0.0
1695232841.4145133,-1000.0,-887.20703125,245.60546875,-66.40625,0.0
1695232841.4184122,165.52734375,-187.98828125,271.97265625,-844.23828125,0.0
1695232841.4223108,-843.75,428.7109375,137.20703125,115.72265625,0.0
1695232841.4262094,-150.87890625,-199.21875,154.78515625,-1000.0,0.0
1695232841.4301083,-1000.0,-914.55078125,156.73828125,-276.3671875,0.0
1695232841.4340901,-218.26171875,-404.296875,180.6640625,-811.5234375,0.0
1695232841.437989,-821.2890625,381.8359375,202.1484375,322.265625,0.0
1695232841.4418876,207.03125,51.7578125,137.20703125,-1000.0,0.0
1695232841.4457862,-1000.0,-758.7890625,186.5234375,-589.84375,0.0
1695232841.449685,-368.1640625,-605.46875,189.94140625,998.046875,0.0
1695232841.4535837,-849.12109375,193.84765625,238.76953125,789.55078125,0.0
1695232841.4574823,408.203125,235.3515625,217.28515625,-748.046875,0.0
1695232841.461381,-1000.0,-562.01171875,229.98046875,-1000.0,0.0
1695232841.4652798,-857.421875,-766.6015625,80.078125,256.34765625,0.0
1695232841.4691784,726.5625,-4.8828125,163.57421875,-804.6875,0.0
1695232841.473077,851.5625,378.41796875,160.15625,-71.77734375,0.0
1695232841.476976,-667.96875,-363.76953125,150.390625,-1000.0,0.0
1695232841.480951,-1000.0,-899.90234375,145.01953125,-195.3125,0.0
1695232841.4848497,29.296875,-241.69921875,205.56640625,-803.7109375,0.0
1695232841.4887486,-811.03515625,416.015625,209.9609375,233.88671875,0.0
1695232841.4926472,3.90625,-141.11328125,168.9453125,-1000.0,0.0
1695232841.4965458,-1000.0,-888.671875,131.8359375,-337.40234375,0.0
1695232841.5004447,-236.81640625,-477.05078125,162.59765625,-838.37890625,0.0
1695232841.5043433,-817.87109375,309.08203125,285.64453125,520.99609375,0.0
1695232841.508242,232.421875,92.7734375,249.51171875,-1000.0,0.0
1695232841.5121408,-1000.0,-694.3359375,166.50390625,-784.66796875,0.0
1695232841.5160394,-500.9765625,-652.34375,112.3046875,824.70703125,0.0
1695232841.519938,-910.15625,130.859375,210.44921875,915.0390625,0.0
1695232841.5238369,505.859375,286.62109375,112.3046875,-595.703125,0.0
1695232841.5278046,-1000.0,-489.74609375,137.20703125,-1000.0,0.0
1695232841.5317032,-970.703125,-806.15234375,143.06640625,109.375,0.0
1695232841.535602,525.390625,-70.3125,208.49609375,-787.109375,0.0
1695232841.5395007,-977.5390625,402.83203125,185.546875,57.6171875,0.0
1695232841.5433996,-428.7109375,-306.15234375,175.78125,-1000.0,0.0
1695232841.5472982,-1000.0,-914.55078125,199.70703125,-242.1875,0.0
1695232841.5511968,-102.05078125,-298.33984375,252.9296875,-808.10546875,0.0
1695232841.5550957,-809.5703125,434.08203125,145.01953125,240.72265625,0.0
1695232841.5589943,136.23046875,-41.9921875,81.0546875,-1000.0,0.0
1695232841.562893,-1000.0,-838.8671875,169.43359375,-421.38671875,0.0
1695232841.5667918,-251.953125,-521.484375,202.1484375,-873.046875,0.0
1695232841.5706904,-810.546875,289.0625,211.42578125,544.921875,0.0
1695232841.5746512,273.4375,174.8046875,81.0546875,-1000.0,0.0
1695232841.57855,-1000.0,-632.32421875,145.99609375,-919.43359375,0.0
1695232841.5824487,-607.421875,-698.73046875,137.6953125,598.6328125,0.0
1695232841.5863476,-977.5390625,113.28125,169.921875,-922.36328125,0.0
1695232841.5902462,621.09375,261.23046875,128.90625,-386.23046875,0.0
1695232841.5941448,-944.3359375,-553.7109375,189.94140625,-1000.0,0.0
1695232841.5980437,-1000.0,-817.87109375,195.80078125,63.4765625,0.0
1695232841.6019423,319.82421875,-121.09375,231.93359375,-793.9453125,0.0
1695232841.605841,-861.328125,423.33984375,193.84765625,182.12890625,0.0
1695232841.6097398,-213.8671875,-237.3046875,197.75390625,-1000.0,0.0
1695232841.6136384,-1000.0,-911.1328125,138.671875,-259.765625,0.0
1695232841.6175373,-183.10546875,-346.19140625,151.3671875,-804.19921875,0.0
1695232841.6215296,-814.453125,423.828125,199.70703125,268.06640625,0.0
1695232841.6254284,191.40625,35.15625,142.578125,-1000.0,0.0
1695232841.629327,-1000.0,-766.6015625,157.71484375,-530.2734375,0.0
1695232841.633226,-302.734375,-549.31640625,143.06640625,-951.171875,0.0
1695232841.6371245,-823.73046875,250.0,227.5390625,705.56640625,0.0
1695232841.6410232,367.67578125,222.65625,221.19140625,-846.19140625,0.0
1695232841.644922,-1000.0,-575.1953125,194.82421875,-1000.0,0.0
1695232841.6488206,-738.28125,-714.35546875,57.6171875,340.33203125,0.0
1695232841.6527195,869.140625,39.55078125,209.9609375,-812.01171875,0.0
1695232841.656618,813.4765625,361.328125,247.55859375,-91.796875,0.0
1695232841.6605167,-721.19140625,-379.39453125,188.96484375,-1000.0,0.0
1695232841.6644156,-1000.0,-854.00390625,88.37890625,-159.1796875,0.0
1695232841.6684098,152.34375,-168.45703125,196.77734375,-795.41015625,0.0
1695232841.6723084,-805.17578125,456.54296875,180.6640625,214.35546875,0.0
1695232841.6762073,-40.52734375,-138.671875,104.4921875,-1000.0,0.0
1695232841.680106,-1000.0,-867.67578125,118.65234375,-296.38671875,0.0
1695232841.6840048,-231.4453125,-402.83203125,144.53125,-817.87109375,0.0
1695232841.6879034,-814.453125,379.39453125,237.79296875,394.04296875,0.0
1695232841.691802,232.421875,88.8671875,216.30859375,-1000.0,0.0
1695232841.695701,-1000.0,-721.6796875,200.68359375,-667.96875,0.0
1695232841.6995995,-395.99609375,-618.1640625,236.81640625,949.70703125,0.0
1695232841.7034984,-859.375,185.05859375,275.390625,796.875,0.0
1695232841.707397,460.9375,287.59765625,63.96484375,-751.953125,0.0
1695232841.7112958,-1000.0,-504.39453125,132.32421875,-1000.0,0.0
1695232841.7152839,-852.05078125,-748.53515625,164.0625,230.46875,0.0
1695232841.7191825,691.89453125,9.27734375,208.49609375,-801.26953125,0.0
1695232841.723081,-998.53515625,434.5703125,111.81640625,-48.828125,0.0
1695232841.72698,-465.33203125,-294.43359375,123.046875,-1000.0,0.0
1695232841.7308786,-1000.0,-861.328125,143.06640625,-221.19140625,0.0
1695232841.7347775,4.39453125,-214.35546875,204.1015625,-809.08203125,0.0
1695232841.738676,-790.0390625,477.5390625,214.35546875,237.3046875,0.0
1695232841.742575,118.1640625,-56.15234375,173.828125,-1000.0,0.0
1695232841.7464736,-1000.0,-846.6796875,213.37890625,-347.65625,0.0
1695232841.7503724,-251.46484375,-448.2421875,184.5703125,-838.37890625,0.0
1695232841.754271,-808.59375,361.81640625,206.0546875,460.9375,0.0
1695232841.7581697,250.48828125,153.3203125,160.64453125,-1000.0,0.0
1695232841.7621508,-1000.0,-659.66796875,186.03515625,-811.5234375,0.0
1695232841.7660494,-501.46484375,-636.23046875,138.671875,748.046875,0.0
1695232841.7699482,-922.36328125,145.01953125,227.05078125,988.76953125,0.0
1695232841.7738469,626.953125,328.61328125,175.29296875,-490.72265625,0.0
1695232841.7777457,-938.96484375,-432.12890625,178.22265625,-1000.0,0.0
1695232841.7816443,-1000.0,-773.92578125,161.62109375,60.546875,0.0
1695232841.785543,457.51953125,-37.59765625,209.47265625,-780.2734375,0.0
1695232841.7894418,-871.09375,456.54296875,249.0234375,123.53515625,0.0
1695232841.7933404,-255.37109375,-240.234375,254.39453125,-1000.0,0.0
1695232841.7972393,-1000.0,-851.5625,82.03125,-252.44140625,0.0
1695232841.801138,-115.234375,-268.06640625,143.5546875,-806.15234375,0.0
1695232841.8050368,-798.33984375,459.47265625,209.9609375,241.2109375,0.0
1695232841.8090107,189.94140625,18.06640625,121.09375,-1000.0,0.0
1695232841.8129094,-1000.0,-784.66796875,125.9765625,-461.42578125,0.0
1695232841.8168082,-229.98046875,-501.953125,149.90234375,-895.01953125,0.0
1695232841.8207068,-915.0390625,263.671875,230.95703125,588.8671875,0.0
1695232841.8246057,147.4609375,143.5546875,152.34375,-989.2578125,0.0
1695232841.8285043,-1000.0,-622.55859375,179.19921875,-962.40234375,0.0
1695232841.8324032,-625.9765625,-690.91796875,193.359375,537.109375,0.0
1695232841.8363018,977.05078125,75.1953125,257.32421875,-897.94921875,0.0
1695232841.8402007,757.32421875,360.83984375,109.375,-310.546875,0.0
1695232841.8440993,-795.41015625,-382.32421875,132.32421875,-1000.0,0.0
1695232841.8479981,-1000.0,-811.03515625,157.71484375,-53.22265625,0.0
1695232841.8518968,273.92578125,-101.07421875,222.16796875,-786.62109375,0.0
1695232841.855874,-805.6640625,480.95703125,133.30078125,184.08203125,0.0
1695232841.8597727,-65.91796875,-160.15625,98.6328125,-1000.0,0.0
1695232841.8636715,-1000.0,-862.3046875,187.98828125,-260.7421875,0.0
1695232841.8675702,-217.7734375,-338.37890625,217.28515625,-803.22265625,0.0
1695232841.871469,-808.59375,439.94140625,225.5859375,294.921875,0.0
1695232841.8753676,230.46875,70.80078125,166.50390625,-1000.0,0.0
1695232841.8792665,-1000.0,-757.8125,242.1875,-495.1171875,0.0
1695232841.8831651,-312.01171875,-570.3125,279.296875,-923.828125,0.0
1695232841.887064,-824.21875,248.53515625,236.328125,686.5234375,0.0
1695232841.8909626,415.0390625,268.5546875,89.35546875,-849.12109375,0.0
1695232841.8948615,-1000.0,-522.94921875,137.20703125,-1000.0,0.0
1695232841.89876,-777.34375,-703.61328125,97.16796875,317.87109375,0.0
1695232841.9027393,798.828125,46.875,158.203125,-824.21875,0.0
1695232841.9066381,936.03515625,407.2265625,131.8359375,-138.671875,0.0
1695232841.910537,-570.3125,-338.8671875,154.78515625,-1000.0,0.0
1695232841.9144356,-1000.0,-842.7734375,86.9140625,-174.8046875,0.0
1695232841.9183345,136.23046875,-155.76171875,139.16015625,-802.734375,0.0
1695232841.922233,-791.9921875,480.95703125,228.515625,230.95703125,0.0
1695232841.926132,4.39453125,-109.375,220.703125,-1000.0,0.0
1695232841.9300306,-1000.0,-835.9375,111.81640625,-309.5703125,0.0
1695232841.9339294,-234.86328125,-377.9296875,95.703125,-821.77734375,0.0
1695232841.937828,-812.01171875,408.203125,239.74609375,407.71484375,0.0
1695232841.941727,241.2109375,141.11328125,231.4453125,-1000.0,0.0
1695232841.9456255,-1000.0,-663.0859375,187.01171875,-725.09765625,0.0
1695232841.949626,-426.7578125,-580.078125,119.140625,870.1171875,0.0
1695232841.9535246,-876.953125,203.61328125,213.8671875,878.41796875,0.0
1695232841.9574234,541.50390625,319.3359375,127.44140625,-640.13671875,0.0
1695232841.9613223,-1000.0,-463.37890625,133.30078125,-1000.0,0.0
1695232841.965221,-904.78515625,-745.60546875,110.83984375,131.34765625,0.0
1695232841.9691198,640.13671875,-13.18359375,218.75,-789.55078125,0.0
1695232841.9730184,-976.07421875,418.45703125,235.83984375,31.73828125,0.0
1695232841.9769173,-434.5703125,-293.45703125,184.5703125,-1000.0,0.0
1695232841.980816,-1000.0,-859.375,125.0,-228.515625,0.0
1695232841.9847147,-14.6484375,-228.515625,199.21875,-805.17578125,0.0
1695232841.9886136,-788.0859375,474.609375,174.31640625,237.79296875,0.0
1695232841.9925122,150.87890625,-24.4140625,99.609375,-1000.0,0.0
1695232841.9965055,-1000.0,-807.6171875,162.59765625,-381.34765625,0.0
1695232842.0004044,-256.34765625,-450.68359375,211.42578125,-854.4921875,0.0
1695232842.004303,-806.640625,361.328125,220.21484375,510.25390625,0.0
1695232842.0082018,271.484375,208.49609375,56.15234375,-1000.0,0.0
1695232842.0121007,-1000.0,-610.83984375,148.4375,-841.796875,0.0
1695232842.0159993,-520.99609375,-641.6015625,242.67578125,726.5625,0.0
1695232842.0198982,-933.59375,138.671875,240.234375,-999.51171875,0.0
1695232842.0237968,650.390625,350.09765625,99.609375,-485.3515625,0.0
1695232842.0276957,-915.52734375,-423.828125,167.48046875,-1000.0,0.0
1695232842.0315943,-1000.0,-804.19921875,232.421875,85.9375,0.0
1695232842.0354931,417.48046875,-75.1953125,229.4921875,-778.3203125,0.0
1695232842.039392,-840.33203125,458.0078125,126.953125,112.79296875,0.0
1695232842.0433795,-181.15234375,-223.6328125,164.0625,-1000.0,0.0
1695232842.0472782,-1000.0,-872.0703125,161.62109375,-252.44140625,0.0
1695232842.051177,-147.4609375,-285.64453125,149.90234375,-807.12890625,0.0
1695232842.055076,-799.8046875,465.33203125,208.49609375,251.953125,0.0
1695232842.0589745,208.49609375,31.73828125,200.1953125,-1000.0,0.0
1695232842.0628734,-1000.0,-772.94921875,218.75,-475.09765625,0.0
1695232842.0667722,-277.34375,-511.23046875,214.84375,-910.15625,0.0
1695232842.0706708,-812.01171875,291.9921875,232.91015625,642.08984375,0.0
1695232842.0745697,345.703125,227.05078125,222.65625,-923.33984375,0.0
1695232842.0784683,-1000.0,-577.1484375,249.0234375,-1000.0,0.0
1695232842.0823672,-667.48046875,-690.4296875,144.04296875,457.03125,0.0
1695232842.086266,941.89453125,74.70703125,231.93359375,-866.69921875,0.0
1695232842.090265,798.33984375,375.48828125,169.43359375,-242.67578125,0.0
1695232842.0941637,-753.41796875,-370.60546875,145.99609375,-1000.0,0.0
1695232842.0980625,-1000.0,-813.4765625,96.19140625,-113.28125,0.0
1695232842.1019611,258.7890625,-118.1640625,190.4296875,-795.41015625,0.0
1695232842.10586,-810.546875,470.21484375,190.91796875,198.73046875,0.0
1695232842.1097589,-80.078125,-159.1796875,142.578125,-1000.0,0.0
1695232842.1136575,-1000.0,-856.93359375,181.640625,-263.18359375,0.0
1695232842.1175563,-215.33203125,-352.5390625,246.09375,-806.640625,0.0
1695232842.1214552,-810.05859375,417.96875,248.53515625,327.63671875,0.0
1695232842.1253538,233.3984375,99.12109375,130.37109375,-1000.0,0.0
1695232842.1292527,-1000.0,-715.33203125,155.2734375,-643.06640625,0.0
1695232842.1331515,-343.26171875,-574.21875,184.5703125,973.14453125,0.0
1695232842.1371431,-836.9140625,233.88671875,241.2109375,740.72265625,0.0
1695232842.141042,457.03125,297.8515625,83.0078125,-820.3125,0.0
1695232842.1449406,-1000.0,-497.55859375,128.90625,-1000.0,0.0
1695232842.1488395,-774.4140625,-705.078125,190.91796875,293.45703125,0.0
1695232842.1527383,787.109375,41.9921875,238.28125,-862.3046875,0.0
1695232842.156637,996.58203125,412.59765625,175.29296875,-164.55078125,0.0
1695232842.1605358,-464.84375,-306.15234375,173.33984375,-1000.0,0.0
1695232842.1644347,-1000.0,-851.07421875,237.3046875,-187.5,0.0
1695232842.1683333,60.546875,-194.82421875,291.015625,-805.6640625,0.0
1695232842.1722322,-787.109375,479.00390625,172.36328125,233.88671875,0.0
1695232842.176131,76.66015625,-90.33203125,165.0390625,-1000.0,0.0
1695232842.1800296,-1000.0,-856.93359375,166.50390625,-358.3984375,0.0
1695232842.1840067,-246.58203125,-431.15234375,149.90234375,-840.8203125,0.0
1695232842.1879053,-809.5703125,374.51171875,191.89453125,415.0390625,0.0
1695232842.1918042,241.2109375,135.7421875,132.8125,-1000.0,0.0
1695232842.195703,-1000.0,-672.36328125,159.66796875,-755.859375,0.0
1695232842.1996017,-451.171875,-603.02734375,99.609375,822.265625,0.0
1695232842.2035005,-892.08984375,180.6640625,199.70703125,918.9453125,0.0
1695232842.2073994,577.63671875,312.5,212.40234375,-587.40234375,0.0
1695232842.2112982,-997.0703125,-466.30859375,210.44921875,-1000.0,0.0
1695232842.2151968,-938.96484375,-749.0234375,81.54296875,93.75,0.0
1695232842.2190957,568.84765625,6.8359375,160.15625,-791.015625,0.0
1695232842.2229946,-900.87890625,469.7265625,205.078125,41.9921875,0.0
1695232842.2268932,-307.12890625,-246.58203125,201.66015625,-1000.0,0.0
1695232842.230873,-1000.0,-845.21484375,148.4375,-239.74609375,0.0
1695232842.2347717,-57.6171875,-227.5390625,183.59375,-810.05859375,0.0
1695232842.2386706,-780.76171875,475.09765625,223.14453125,241.69921875,0.0
1695232842.2425694,163.0859375,-22.94921875,166.015625,-1000.0,0.0
1695232842.2464683,-1000.0,-781.73828125,177.734375,-440.91796875,0.0
1695232842.250367,-173.33984375,-448.73046875,198.2421875,-896.484375,0.0
1695232842.2542658,-816.89453125,313.4765625,295.41015625,628.41796875,0.0
1695232842.2581646,314.94140625,202.1484375,242.67578125,-955.078125,0.0
1695232842.2620633,-1000.0,-582.51953125,176.7578125,-938.96484375,0.0
1695232842.2659621,-556.640625,-639.6484375,137.20703125,613.76953125,0.0
1695232842.269861,-966.796875,131.8359375,209.9609375,-956.0546875,0.0
1695232842.2737598,740.234375,379.8828125,112.3046875,-412.109375,0.0
1695232842.277761,-817.3828125,-375.9765625,128.41796875,-1000.0,0.0
1695232842.2816598,-1000.0,-774.4140625,151.85546875,-39.55078125,0.0
1695232842.2855587,363.28125,-56.15234375,254.39453125,-781.25,0.0
1695232842.2894573,-822.75390625,491.69921875,196.77734375,160.64453125,0.0
1695232842.2933562,-135.25390625,-169.43359375,134.765625,-1000.0,0.0
1695232842.297255,-1000.0,-838.8671875,193.359375,-169.921875,0.0
1695232842.301154,-164.0625,-293.9453125,261.23046875,-814.94140625,0.0
1695232842.3050525,-799.8046875,471.19140625,179.19921875,256.34765625,0.0
1695232842.3089514,219.23828125,76.66015625,89.35546875,-1000.0,0.0
1695232842.3128502,-1000.0,-729.98046875,167.48046875,-496.09375,0.0
1695232842.316749,-284.66796875,-501.953125,194.82421875,-920.8984375,0.0
1695232842.3206477,-814.453125,293.45703125,227.5390625,651.85546875,0.0
1695232842.3246512,411.1328125,258.7890625,100.5859375,-900.87890625,0.0
1695232842.32855,-1000.0,-541.9921875,153.3203125,-1000.0,0.0
1695232842.332449,-699.21875,-687.5,131.34765625,374.0234375,0.0
1695232842.3363478,906.25,72.265625,176.7578125,-844.7265625,0.0
1695232842.3402467,864.2578125,399.4140625,144.53125,-207.51953125,0.0
1695232842.3441453,-667.96875,-352.05078125,165.52734375,-1000.0,0.0
1695232842.3480442,-1000.0,-821.77734375,185.546875,-113.76953125,0.0
1695232842.351943,221.6796875,-124.51171875,247.0703125,-792.96875,0.0
1695232842.3558419,-790.0390625,496.09375,170.8984375,213.8671875,0.0
1695232842.3597405,0.9765625,-117.1875,193.84765625,-1000.0,0.0
1695232842.3636394,-1000.0,-834.47265625,169.921875,-288.0859375,0.0
1695232842.3675382,-228.02734375,-332.51953125,112.79296875,-813.4765625,0.0
1695232842.3715434,-807.6171875,441.40625,238.28125,343.75,0.0
1695232842.3754423,237.79296875,125.48828125,204.1015625,-1000.0,0.0
1695232842.379341,-1000.0,-678.7109375,169.43359375,-657.2265625,0.0
1695232842.3832397,-372.55859375,-551.26953125,114.74609375,934.08203125,0.0
1695232842.3871386,-852.05078125,237.3046875,208.984375,830.56640625,0.0
1695232842.3910375,510.25390625,294.921875,203.61328125,-699.21875,0.0
1695232842.3949363,-1000.0,-490.72265625,197.75390625,-1000.0,0.0
1695232842.398835,-812.01171875,-713.8671875,91.796875,190.4296875,0.0
1695232842.4027338,740.72265625,33.203125,222.16796875,-787.109375,0.0
1695232842.4066327,-955.56640625,439.453125,241.2109375,33.203125,0.0
1695232842.4105315,-402.34375,-269.04296875,186.03515625,-1000.0,0.0
1695232842.4144304,-1000.0,-802.734375,99.12109375,-220.21484375,0.0
1695232842.4184206,59.5703125,-155.76171875,190.4296875,-801.7578125,0.0
1695232842.4223194,-779.78515625,511.23046875,190.4296875,242.67578125,0.0
1695232842.4262183,124.51171875,-27.34375,91.796875,-1000.0,0.0
1695232842.4301171,-1000.0,-794.921875,121.09375,-314.94140625,0.0
1695232842.4340158,-254.39453125,-387.6953125,156.25,-994.140625,0.0
1695232842.4379146,-806.640625,413.0859375,221.19140625,189.94140625,0.0
1695232842.4418135,261.23046875,182.12890625,180.17578125,-1000.0,0.0
1695232842.4457123,-1000.0,-627.9296875,183.59375,-780.76171875,0.0
1695232842.4496112,-457.03125,-615.234375,206.0546875,813.96484375,0.0
1695232842.4535098,-946.77734375,153.3203125,266.11328125,883.7890625,0.0
1695232842.4574087,564.94140625,333.0078125,97.16796875,-648.4375,0.0
1695232842.4613075,-941.89453125,-433.59375,159.1796875,-1000.0,0.0
1695232842.4652905,-967.28515625,-761.23046875,130.37109375,83.984375,0.0
1695232842.4691894,514.16015625,-15.625,200.68359375,-786.62109375,0.0
1695232842.473088,-852.5390625,486.81640625,123.046875,84.9609375,0.0
1695232842.476987,-209.9609375,-216.30859375,106.4453125,-1000.0,0.0
1695232842.4808857,-1000.0,-849.12109375,135.25390625,-248.046875,0.0
1695232842.4847846,-70.3125,-239.74609375,192.87109375,-806.640625,0.0
1695232842.4886835,-785.15625,496.09375,219.23828125,240.234375,0.0
1695232842.4925823,188.96484375,19.53125,198.2421875,-1000.0,0.0
1695232842.496481,-1000.0,-791.9921875,232.421875,-420.41015625,0.0
1695232842.5003798,-263.18359375,-473.14453125,177.734375,-875.9765625,0.0
1695232842.5042787,-806.15234375,333.49609375,214.35546875,564.453125,0.0
1695232842.5081775,330.078125,222.65625,127.44140625,-995.60546875,0.0
1695232842.5121617,-1000.0,-574.70703125,158.203125,-954.58984375,0.0
1695232842.5160606,-579.58984375,-648.92578125,142.08984375,543.45703125,0.0
1695232842.5199594,-988.76953125,122.0703125,222.65625,-898.92578125,0.0
1695232842.5238583,781.25,388.671875,173.828125,-314.453125,0.0
1695232842.5277572,-772.4609375,-367.1875,205.078125,-1000.0,0.0
1695232842.5316558,-1000.0,-776.85546875,166.50390625,-35.64453125,0.0
1695232842.5355546,332.03125,-62.01171875,212.890625,-783.203125,0.0
1695232842.5394535,-805.6640625,484.86328125,275.390625,187.98828125,0.0
1695232842.5433524,-69.3359375,-170.8984375,252.44140625,-1000.0,0.0
1695232842.5472512,-1000.0,-832.51953125,90.33203125,-261.23046875,0.0
1695232842.55115,-198.2421875,-303.22265625,149.90234375,-804.6875,0.0
1695232842.555049,-803.22265625,445.80078125,229.00390625,277.83203125,0.0
1695232842.559029,229.4921875,73.73046875,128.90625,-1000.0,0.0
1695232842.562928,-1000.0,-725.09765625,133.7890625,-575.68359375,0.0
1695232842.5668268,-306.15234375,-535.15625,169.921875,-979.00390625,0.0
1695232842.5707257,-821.77734375,261.71875,233.88671875,715.33203125,0.0
1695232842.5746245,424.31640625,270.5078125,154.296875,-865.234375,0.0
1695232842.5785234,-1000.0,-532.2265625,189.453125,-1000.0,0.0
1695232842.5824223,-712.40234375,-696.2890625,200.68359375,406.73828125,0.0
1695232842.586321,885.7421875,58.59375,264.6484375,-837.40234375,0.0
1695232842.59022,894.04296875,412.109375,97.16796875,-171.875,0.0
1695232842.5941186,-617.67578125,-318.359375,114.74609375,-1000.0,0.0
1695232842.5980175,-1000.0,-819.3359375,153.80859375,-159.1796875,0.0
1695232842.6019163,160.64453125,-138.18359375,214.35546875,-800.78125,0.0
1695232842.605888,-791.015625,504.39453125,135.7421875,221.6796875,0.0
1695232842.6097867,11.23046875,-94.7265625,100.5859375,-1000.0,0.0
1695232842.6136856,-1000.0,-843.75,193.84765625,-287.59765625,0.0
1695232842.6175845,-214.84375,-372.55859375,196.77734375,-812.01171875,0.0
1695232842.6214833,-865.72265625,399.90234375,222.16796875,357.421875,0.0
1695232842.6253822,151.3671875,113.28125,183.10546875,-1000.0,0.0
1695232842.629281,-1000.0,-674.31640625,239.2578125,-569.82421875,0.0
1695232842.63318,-395.5078125,-591.30859375,272.4609375,-990.234375,0.0
1695232842.6370788,-865.72265625,214.35546875,231.4453125,816.40625,0.0
1695232842.6409776,531.73828125,323.73046875,68.84765625,-681.640625,0.0
1695232842.6448762,-1000.0,-469.7265625,133.30078125,-1000.0,0.0
1695232842.648775,-867.1875,-731.4453125,104.00390625,163.0859375,0.0
1695232842.6527407,672.36328125,21.484375,165.52734375,-797.8515625,0.0
1695232842.6566396,-943.84765625,447.265625,151.3671875,-25.390625,0.0
1695232842.6605384,-389.6484375,-286.1328125,165.52734375,-1000.0,0.0
1695232842.6644373,-1000.0,-842.28515625,128.90625,-216.30859375,0.0
1695232842.6683362,28.80859375,-190.4296875,177.24609375,-807.6171875,0.0
1695232842.672235,-781.73828125,484.86328125,261.71875,238.28125,0.0
1695232842.6761339,141.11328125,-44.921875,241.69921875,-1000.0,0.0
1695232842.6800327,-1000.0,-800.78125,138.18359375,-383.7890625,0.0
1695232842.6839316,-256.34765625,-419.43359375,125.48828125,-859.86328125,0.0
1695232842.6878304,-806.15234375,371.09375,262.6953125,550.78125,0.0
1695232842.6917293,271.97265625,205.078125,196.77734375,-1000.0,0.0
1695232842.6956282,-1000.0,-593.26171875,159.66796875,-883.30078125,0.0
1695232842.6995964,-500.9765625,-603.02734375,102.5390625,686.5234375,0.0
1695232842.7034953,-921.38671875,159.1796875,214.35546875,997.0703125,0.0
1695232842.7073941,637.6953125,347.65625,142.08984375,-498.046875,0.0
1695232842.711293,-934.5703125,-417.96875,141.11328125,-1000.0,0.0
1695232842.7151918,-995.60546875,-768.5546875,158.203125,80.56640625,0.0
1695232842.7190907,471.6796875,-49.31640625,255.859375,-777.83203125,0.0
1695232842.7229893,-854.98046875,453.125,260.25390625,123.53515625,0.0
1695232842.7268882,-197.75390625,-211.42578125,200.1953125,-1000.0,0.0
1695232842.730787,-1000.0,-842.28515625,125.9765625,-253.41796875,0.0
1695232842.734686,-145.5078125,-263.18359375,173.828125,-805.6640625,0.0
1695232842.7385848,-799.8046875,478.515625,185.546875,245.1171875,0.0
1695232842.7424836,204.1015625,35.15625,117.1875,-1000.0,0.0
1695232842.7464821,-1000.0,-772.4609375,186.5234375,-456.0546875,0.0
1695232842.750381,-267.08984375,-502.44140625,224.609375,-896.97265625,0.0
1695232842.7542799,-794.921875,314.453125,237.79296875,597.16796875,0.0
