time,TP9,AF7,AF8,TP10,Right AUX
1693677054.4806168,368.1640625,341.30859375,211.42578125,-549.8046875,0.0
1693677054.4845202,-768.5546875,-764.6484375,848.14453125,430.17578125,0.0
1693677054.4884236,807.12890625,809.5703125,-90.33203125,-189.94140625,0.0
1693677054.492327,-667.96875,-672.8515625,-856.4453125,-158.69140625,0.0
1693677054.4962304,-181.640625,-199.70703125,-299.8046875,-453.125,0.0
1693677054.5001338,-837.890625,-860.3515625,797.8515625,294.43359375,0.0
1693677054.5040371,937.01171875,981.4453125,-348.14453125,-329.58984375,0.0
1693677054.5079405,-625.48828125,-534.1796875,-1000.0,-155.76171875,0.0
1693677054.511844,-809.08203125,-866.69921875,-741.69921875,-432.12890625,0.0
1693677054.5157473,803.7109375,753.90625,439.94140625,202.63671875,0.0
1693677054.5196505,-794.921875,-779.78515625,187.98828125,-8.30078125,0.0
1693677054.5236015,63.96484375,66.40625,-92.28515625,-758.7890625,0.0
1693677054.527505,-897.94921875,-895.99609375,-610.3515625,-754.39453125,0.0
1693677054.5314083,497.0703125,499.0234375,435.05859375,-423.33984375,0.0
1693677054.5353117,-748.046875,-755.859375,474.609375,463.8671875,0.0
1693677054.539215,628.41796875,664.0625,-159.1796875,-492.67578125,0.0
1693677054.5431185,-720.21484375,-681.15234375,-792.96875,-497.0703125,0.0
1693677054.5470219,236.81640625,230.46875,169.43359375,-616.2109375,0.0
1693677054.5509253,-765.13671875,-768.06640625,829.58984375,259.27734375,0.0
1693677054.5548286,825.1953125,832.51953125,-174.31640625,-212.40234375,0.0
1693677054.558732,-693.359375,-696.77734375,-866.2109375,-42.48046875,0.0
1693677054.5626354,-365.234375,-467.28515625,-501.953125,-391.11328125,0.0
1693677054.5665388,-929.19921875,-964.35546875,762.6953125,381.8359375,0.0
1693677054.570485,-947.75390625,-935.05859375,-123.53515625,-171.38671875,0.0
1693677054.5743885,-435.546875,-425.29296875,-928.22265625,-323.2421875,0.0
1693677054.578292,-882.32421875,-941.89453125,-780.2734375,-564.94140625,0.0
1693677054.5821953,714.35546875,639.16015625,422.36328125,186.03515625,0.0
1693677054.5860987,-763.671875,-749.51171875,279.296875,578.61328125,0.0
1693677054.590002,255.37109375,344.23828125,27.34375,-531.25,0.0
1693677054.5939054,-829.58984375,-790.52734375,-620.60546875,-688.4765625,0.0
1693677054.5978088,473.6328125,464.84375,422.36328125,-483.3984375,0.0
1693677054.6017122,-758.30078125,-769.53125,807.12890625,595.703125,0.0
1693677054.6056156,711.9140625,771.97265625,48.33984375,-229.4921875,0.0
1693677054.6095188,-685.05859375,-625.0,-785.64453125,-127.44140625,0.0
1693677054.6134222,125.48828125,77.63671875,9.765625,-479.4921875,0.0
1693677054.6173642,-768.06640625,-774.4140625,842.7734375,291.9921875,0.0
1693677054.6212676,842.28515625,855.46875,-186.03515625,-94.7265625,0.0
1693677054.625171,-707.03125,-704.1015625,-881.34765625,96.6796875,0.0
1693677054.6290743,-553.7109375,-708.984375,-683.10546875,-334.47265625,0.0
1693677054.6329777,987.3046875,907.71484375,610.83984375,424.31640625,0.0
1693677054.636881,-894.04296875,-852.5390625,64.94140625,332.51953125,0.0
1693677054.6407845,-316.40625,-236.81640625,-628.41796875,-312.01171875,0.0
1693677054.644688,-1000.0,-978.515625,-748.53515625,-616.2109375,0.0
1693677054.6485913,542.48046875,530.76171875,438.96484375,15.625,0.0
1693677054.6524947,-732.91015625,-737.79296875,380.859375,727.5390625,0.0
1693677054.656398,438.96484375,505.859375,29.78515625,-364.2578125,0.0
1693677054.6603014,-749.51171875,-714.35546875,-726.5625,-544.43359375,0.0
1693677054.6642385,449.70703125,416.50390625,261.71875,-485.3515625,0.0
1693677054.6681418,-769.53125,-771.97265625,853.02734375,497.55859375,0.0
1693677054.6720452,787.59765625,803.22265625,-31.25,-207.51953125,0.0
1693677054.6759486,-637.6953125,-661.1328125,-827.63671875,-47.8515625,0.0
1693677054.679852,20.01953125,-135.25390625,-192.87109375,-433.10546875,0.0
1693677054.6837554,-796.38671875,-832.03125,821.77734375,319.82421875,0.0
1693677054.6876588,912.59765625,943.84765625,-319.82421875,-173.828125,0.0
1693677054.6915622,-611.81640625,-600.09765625,-993.1640625,-73.73046875,0.0
1693677054.6954656,-809.5703125,-815.91796875,-746.09375,-400.390625,0.0
1693677054.699369,831.54296875,810.05859375,459.9609375,310.05859375,0.0
1693677054.7032723,-814.94140625,-800.29296875,215.8203125,203.61328125,0.0
1693677054.7071757,-134.27734375,-12.20703125,-164.55078125,-537.109375,0.0
1693677054.711115,-954.1015625,-918.9453125,-650.390625,-705.56640625,0.0
1693677054.7150183,519.04296875,507.32421875,430.6640625,-327.1484375,0.0
1693677054.7189217,-739.2578125,-748.53515625,500.9765625,584.47265625,0.0
1693677054.722825,537.109375,615.72265625,-78.61328125,-467.7734375,0.0
1693677054.7267284,-742.1875,-712.890625,-784.66796875,-663.57421875,0.0
1693677054.7306318,346.6796875,269.04296875,200.1953125,-602.5390625,0.0
1693677054.7345352,-771.484375,-767.578125,874.51171875,345.21484375,0.0
1693677054.7384386,815.4296875,825.1953125,-36.1328125,-177.734375,0.0
1693677054.742342,-679.19921875,-691.40625,-832.03125,-46.875,0.0
1693677054.7462454,-273.92578125,-368.65234375,-420.41015625,-456.54296875,0.0
1693677054.7501488,-884.27734375,-921.38671875,817.87109375,377.9296875,0.0
1693677054.7540522,996.09375,-964.35546875,-37.109375,-140.625,0.0
1693677054.758012,-523.92578125,-475.09765625,-911.62109375,-127.9296875,0.0
1693677054.7619154,-889.6484375,-882.32421875,-800.78125,-504.8828125,0.0
1693677054.7658188,728.515625,717.7734375,444.3359375,192.87109375,0.0
1693677054.7697222,-773.4375,-765.625,446.77734375,603.515625,0.0
1693677054.7736256,92.7734375,232.91015625,99.12109375,-509.765625,0.0
1693677054.777529,-886.23046875,-837.40234375,-632.8125,-756.8359375,0.0
1693677054.7814324,496.58203125,478.515625,437.01171875,-499.0234375,0.0
1693677054.7853355,-763.18359375,-762.20703125,857.91015625,636.71875,0.0
1693677054.789239,698.2421875,723.6328125,226.5625,-243.1640625,0.0
1693677054.7931423,-643.06640625,-671.38671875,-763.18359375,-502.44140625,0.0
1693677054.7970457,222.65625,123.53515625,50.78125,-629.39453125,0.0
1693677054.800949,-771.484375,-767.08984375,888.671875,353.02734375,0.0
1693677054.8049042,838.37890625,843.26171875,13.18359375,-61.03515625,0.0
1693677054.8088076,-706.0546875,-712.40234375,-804.19921875,66.89453125,0.0
1693677054.812711,-552.734375,-547.36328125,-640.625,-383.30078125,0.0
1693677054.8166144,995.60546875,986.328125,718.26171875,459.47265625,0.0
1693677054.8205178,988.76953125,-991.69921875,279.296875,594.23828125,0.0
1693677054.8244212,-436.5234375,-363.76953125,-650.87890625,-35.64453125,0.0
1693677054.8283246,-923.33984375,-953.125,-819.82421875,-623.53515625,0.0
1693677054.832228,619.140625,575.1953125,440.4296875,166.015625,0.0
1693677054.8361313,-747.0703125,-738.28125,600.5859375,901.3671875,0.0
1693677054.8400347,441.40625,453.61328125,263.18359375,-115.72265625,0.0
1693677054.843938,-748.046875,-738.28125,-711.9140625,-634.765625,0.0
1693677054.8478415,449.21875,447.265625,301.7578125,-525.87890625,0.0
1693677054.8518236,-769.53125,-767.578125,908.203125,562.5,0.0
1693677054.8557267,787.59765625,788.0859375,196.77734375,-221.6796875,0.0
1693677054.85963,-635.7421875,-637.20703125,-774.90234375,-111.81640625,0.0
1693677054.8635335,12.6953125,19.04296875,-139.6484375,-522.94921875,0.0
1693677054.867437,-776.85546875,-791.50390625,855.46875,395.99609375,0.0
1693677054.8713403,858.3984375,904.78515625,-37.109375,91.796875,0.0
1693677054.8752437,-710.9375,-635.25390625,-827.1484375,51.26953125,0.0
1693677054.879147,-732.91015625,-758.7890625,-767.578125,-379.8828125,0.0
1693677054.8830504,887.6953125,869.62890625,540.0390625,406.25,0.0
1693677054.8869538,-837.890625,-825.1953125,278.3203125,570.3125,0.0
1693677054.8908572,-168.45703125,-130.37109375,-361.328125,-256.34765625,0.0
1693677054.8947606,-962.890625,-954.58984375,-729.00390625,-708.0078125,0.0
1693677054.8987322,522.94921875,520.5078125,439.453125,-176.26953125,0.0
1693677054.9026356,-738.76953125,-741.69921875,470.703125,735.83984375,0.0
1693677054.906539,529.78515625,553.22265625,60.05859375,-339.84375,0.0
1693677054.9104424,-718.26171875,-727.5390625,-763.671875,-641.6015625,0.0
1693677054.9143457,383.30078125,342.28515625,202.1484375,-547.36328125,0.0
1693677054.9182491,-770.5078125,-764.16015625,865.234375,427.734375,0.0
1693677054.9221525,807.12890625,807.6171875,-38.0859375,-191.89453125,0.0
1693677054.926056,-667.48046875,-670.41015625,-841.796875,-52.734375,0.0
1693677054.9299593,-181.640625,-175.29296875,-307.12890625,-433.10546875,0.0
1693677054.9338627,-837.890625,-852.5390625,802.24609375,320.3125,0.0
1693677054.937766,937.5,976.5625,-307.12890625,-217.28515625,0.0
1693677054.9416695,-625.48828125,-539.55078125,-1000.0,-104.4921875,0.0
1693677054.9456363,-809.08203125,-856.93359375,-747.55859375,-449.21875,0.0
1693677054.9495397,803.7109375,763.671875,443.84765625,225.5859375,0.0
1693677054.953443,-795.41015625,-782.2265625,193.359375,156.73828125,0.0
1693677054.9573464,63.96484375,61.5234375,-126.46484375,-702.1484375,0.0
1693677054.9612498,-897.94921875,-897.94921875,-629.8828125,-731.93359375,0.0
1693677054.9651532,497.0703125,499.0234375,440.91796875,-317.87109375,0.0
1693677054.9690566,-748.046875,-753.90625,468.26171875,553.22265625,0.0
1693677054.97296,628.41796875,655.2734375,-162.109375,-460.44921875,0.0
1693677054.9768634,-720.21484375,-691.40625,-791.015625,-481.93359375,0.0
1693677054.9807668,237.3046875,231.93359375,177.734375,-579.58984375,0.0
1693677054.9846702,-765.13671875,-766.6015625,853.515625,280.76171875,0.0
1693677054.9885736,825.68359375,830.56640625,-184.08203125,-196.2890625,0.0
1693677054.9925425,-692.87109375,-695.3125,-898.92578125,44.921875,0.0
1693677054.996446,-367.1875,-429.6875,-489.74609375,-354.00390625,0.0
1693677055.0003493,-925.78125,-950.68359375,770.99609375,375.48828125,0.0
1693677055.0042527,-957.03125,-941.40625,-118.1640625,-156.25,0.0
1693677055.008156,-457.03125,-426.7578125,-939.453125,-315.4296875,0.0
1693677055.0120595,-881.34765625,-934.08203125,-785.15625,-562.01171875,0.0
1693677055.0159628,715.33203125,650.87890625,423.33984375,188.4765625,0.0
1693677055.0198662,-765.13671875,-751.46484375,326.66015625,512.6953125,0.0
1693677055.0237696,254.8828125,317.3828125,40.0390625,-553.22265625,0.0
1693677055.027673,-829.58984375,-802.24609375,-638.18359375,-659.66796875,0.0
1693677055.0315764,473.6328125,467.7734375,430.17578125,-487.79296875,0.0
1693677055.0354798,-758.30078125,-768.06640625,777.34375,596.19140625,0.0
1693677055.0394182,711.9140625,761.71875,15.13671875,-226.5625,0.0
1693677055.0433216,-685.05859375,-629.8828125,-783.69140625,-133.7890625,0.0
1693677055.047225,125.48828125,96.6796875,16.6015625,-463.8671875,0.0
1693677055.0511284,-763.18359375,-767.578125,857.91015625,253.41796875,0.0
1693677055.0550318,835.9375,844.7265625,-149.90234375,-196.2890625,0.0
1693677055.0589352,-705.078125,-704.58984375,-865.234375,80.078125,0.0
1693677055.0628386,-453.61328125,-586.9140625,-589.35546875,-229.98046875,0.0
1693677055.0667422,-979.00390625,955.56640625,659.1796875,412.59765625,0.0
1693677055.0706456,-907.71484375,-876.953125,104.00390625,99.609375,0.0
1693677055.074549,-314.453125,-256.8359375,-644.53125,-411.1328125,0.0
1693677055.0784523,-981.4453125,-987.79296875,-779.78515625,-625.9765625,0.0
1693677055.0823557,570.3125,534.1796875,452.1484375,20.01953125,0.0
1693677055.086296,-737.3046875,-736.81640625,445.80078125,658.69140625,0.0
1693677055.0901995,439.94140625,494.62890625,69.3359375,-441.40625,0.0
1693677055.0941029,-748.53515625,-707.51953125,-730.46875,-567.3828125,0.0
1693677055.0980062,449.21875,437.98828125,272.4609375,-520.01953125,0.0
1693677055.1019096,-769.53125,-772.94921875,868.65234375,484.86328125,0.0
1693677055.105813,787.109375,800.78125,4.39453125,-202.1484375,0.0
1693677055.1097164,-637.6953125,-656.25,-819.82421875,-68.359375,0.0
1693677055.1136198,19.53125,-108.3984375,-186.03515625,-429.6875,0.0
1693677055.1175232,-795.41015625,-824.21875,834.9609375,285.64453125,0.0
1693677055.1214268,914.55078125,934.08203125,-254.39453125,-246.09375,0.0
1693677055.1253302,-623.046875,-609.86328125,-958.984375,-73.73046875,0.0
1693677055.1292336,-741.2109375,-816.40625,-758.7890625,-390.625,0.0
1693677055.1331887,883.7890625,812.01171875,474.12109375,299.31640625,0.0
1693677055.1370924,-829.58984375,-802.24609375,244.140625,108.3984375,0.0
1693677055.1409957,-129.39453125,-30.76171875,-192.3828125,-565.4296875,0.0
1693677055.1448991,-954.58984375,-924.31640625,-664.55078125,-691.89453125,0.0
1693677055.1488025,519.04296875,509.27734375,431.640625,-308.10546875,0.0
1693677055.152706,-739.2578125,-748.53515625,517.578125,582.51953125,0.0
1693677055.1566093,537.109375,609.86328125,-33.69140625,-463.37890625,0.0
1693677055.1605127,-742.1875,-710.44921875,-779.296875,-641.11328125,0.0
1693677055.164416,345.703125,280.76171875,196.2890625,-606.4453125,0.0
1693677055.1683195,-765.625,-768.06640625,884.765625,347.16796875,0.0
1693677055.1722229,807.12890625,824.21875,-11.71875,-182.6171875,0.0
1693677055.1761262,-670.8984375,-689.94140625,-836.9140625,-22.4609375,0.0
1693677055.1800823,-173.828125,-360.83984375,-414.0625,-431.640625,0.0
1693677055.1839857,-856.4453125,-917.48046875,815.91796875,367.67578125,0.0
1693677055.187889,981.93359375,-970.21484375,-83.984375,-145.5078125,0.0
1693677055.1917925,-516.11328125,-484.375,-927.24609375,-135.25390625,0.0
1693677055.1956959,-893.06640625,-882.32421875,-791.9921875,-491.2109375,0.0
1693677055.1995993,730.95703125,719.23828125,443.359375,227.05078125,0.0
1693677055.2035027,-774.4140625,-766.6015625,429.19921875,562.5,0.0
1693677055.207406,59.08203125,220.703125,73.2421875,-530.76171875,0.0
1693677055.2113094,-897.94921875,-841.30859375,-638.18359375,-745.1171875,0.0
1693677055.2152128,501.953125,479.4921875,457.51953125,-449.70703125,0.0
1693677055.2191162,-765.625,-758.7890625,832.51953125,644.53125,0.0
1693677055.2230198,699.21875,710.9375,151.3671875,-242.1875,0.0
1693677055.2269716,-643.06640625,-678.7109375,-772.94921875,-318.359375,0.0
1693677055.230875,222.16796875,139.6484375,76.171875,-548.828125,0.0
1693677055.2347784,-771.484375,-768.06640625,877.44140625,279.296875,0.0
1693677055.238682,838.37890625,842.28515625,-24.4140625,-143.5546875,0.0
1693677055.2425854,-699.70703125,-705.56640625,-825.68359375,36.62109375,0.0
1693677055.2464888,-561.5234375,-555.17578125,-612.79296875,-362.79296875,0.0
1693677055.2503922,-997.0703125,991.69921875,733.3984375,452.1484375,0.0
1693677055.2542956,-921.875,-897.4609375,131.8359375,236.81640625,0.0
1693677055.258199,-434.08203125,-354.4921875,-766.6015625,-257.8125,0.0
1693677055.2621024,-941.89453125,-954.58984375,-812.98828125,-605.95703125,0.0
1693677055.2660058,630.37109375,604.4921875,449.70703125,189.453125,0.0
1693677055.2699091,-750.9765625,-743.1640625,495.1171875,769.04296875,0.0
1693677055.2738566,406.25,440.91796875,153.80859375,-364.74609375,0.0
1693677055.27776,-763.671875,-748.53515625,-698.73046875,-660.64453125,0.0
1693677055.2816634,459.9609375,455.078125,333.49609375,-531.73828125,0.0
1693677055.2855668,-775.87890625,-775.390625,869.140625,549.8046875,0.0
1693677055.2894702,784.1796875,790.0390625,90.8203125,-215.8203125,0.0
1693677055.2933736,-523.92578125,-537.109375,-792.48046875,-226.5625,0.0
1693677055.297277,83.0078125,51.7578125,-109.375,-527.34375,0.0
1693677055.3011804,-792.48046875,-804.19921875,837.890625,346.19140625,0.0
1693677055.3050838,863.76953125,904.296875,-141.11328125,-119.62890625,0.0
1693677055.3089871,-710.44921875,-654.78515625,-870.1171875,12.6953125,0.0
1693677055.3128908,-740.234375,-741.69921875,-745.1171875,-357.91015625,0.0
1693677055.3167942,898.92578125,883.30078125,552.734375,377.9296875,0.0
1693677055.3207366,-854.00390625,-831.54296875,266.11328125,311.03515625,0.0
1693677055.32464,-281.25,-144.53125,-398.4375,-355.95703125,0.0
1693677055.3285434,-985.83984375,-958.0078125,-742.67578125,-680.17578125,0.0
1693677055.3324468,536.1328125,521.484375,444.3359375,-179.6875,0.0
1693677055.3363502,-743.1640625,-740.72265625,546.38671875,672.8515625,0.0
1693677055.3402536,522.4609375,543.9453125,100.09765625,-422.36328125,0.0
1693677055.344157,-688.96484375,-736.328125,-770.5078125,-651.3671875,0.0
1693677055.3480604,428.7109375,344.7265625,201.171875,-555.17578125,0.0
1693677055.351964,-776.3671875,-764.6484375,896.97265625,429.6875,0.0
1693677055.3558674,807.12890625,807.6171875,44.921875,-194.3359375,0.0
1693677055.3597708,-666.50390625,-670.41015625,-818.84765625,-50.29296875,0.0
1693677055.3636742,-181.640625,-174.8046875,-326.171875,-437.01171875,0.0
1693677055.3676188,-837.890625,-853.02734375,840.8203125,333.984375,0.0
1693677055.3715222,937.5,977.5390625,-49.8046875,-163.0859375,0.0
1693677055.3754256,-625.48828125,-537.59765625,-901.3671875,-48.828125,0.0
1693677055.379329,-809.08203125,-856.4453125,-791.50390625,-464.35546875,0.0
1693677055.3832324,803.22265625,764.16015625,469.7265625,234.86328125,0.0
1693677055.3871357,-795.41015625,-782.2265625,390.625,391.6015625,0.0
1693677055.3910391,63.96484375,61.5234375,-18.5546875,-619.140625,0.0
1693677055.3949425,-897.94921875,-897.94921875,-651.3671875,-776.85546875,0.0
1693677055.398846,496.58203125,499.51171875,430.17578125,-328.125,0.0
1693677055.4027495,-748.046875,-755.37109375,744.140625,657.2265625,0.0
1693677055.406653,628.41796875,660.64453125,149.4140625,-349.609375,0.0
1693677055.4105563,-720.21484375,-685.05859375,-785.15625,-516.6015625,0.0
1693677055.4144962,237.3046875,230.95703125,159.1796875,-535.64453125,0.0
1693677055.4183996,-765.13671875,-766.11328125,890.625,320.80078125,0.0
1693677055.422303,825.1953125,830.56640625,-8.30078125,-183.59375,0.0
1693677055.4262064,-693.359375,-695.80078125,-829.1015625,39.55078125,0.0
1693677055.4301097,-365.234375,-433.59375,-527.83203125,-415.0390625,0.0
1693677055.4340131,-929.19921875,-952.1484375,789.0625,420.41015625,0.0
1693677055.4379165,-948.2421875,-940.91796875,41.9921875,21.97265625,0.0
1693677055.4418201,-435.546875,-426.26953125,-858.3984375,-164.0625,0.0
1693677055.4457235,-882.32421875,-937.01171875,-814.94140625,-540.0390625,0.0
1693677055.449627,714.35546875,647.94921875,434.08203125,177.734375,0.0
1693677055.4535303,-763.671875,-750.48828125,507.32421875,727.5390625,0.0
1693677055.4574337,254.8828125,314.94140625,147.4609375,-466.796875,0.0
1693677055.4613938,-829.58984375,-803.22265625,-664.0625,-752.44140625,0.0
1693677055.4652972,473.6328125,467.7734375,430.6640625,-480.95703125,0.0
1693677055.4692006,-758.30078125,-766.6015625,841.796875,603.02734375,0.0
1693677055.473104,712.40234375,757.8125,102.05078125,-227.5390625,0.0
1693677055.4770076,-685.05859375,-631.8359375,-778.80859375,-288.0859375,0.0
1693677055.480911,125.48828125,102.5390625,19.04296875,-541.50390625,0.0
1693677055.4848144,-768.5546875,-772.4609375,866.2109375,298.828125,0.0
1693677055.4887178,842.28515625,851.07421875,-74.70703125,-138.671875,0.0
1693677055.4926212,-707.03125,-705.56640625,-837.40234375,71.2890625,0.0
1693677055.4965246,-553.7109375,-689.453125,-699.70703125,-345.21484375,0.0
1693677055.500428,986.81640625,924.8046875,638.671875,416.9921875,0.0
1693677055.5043314,-889.6484375,-865.234375,148.4375,216.30859375,0.0
1693677055.5082872,-328.61328125,-296.38671875,-668.45703125,-435.05859375,0.0
1693677055.5121908,-957.51953125,-991.69921875,-786.62109375,-693.84765625,0.0
1693677055.5160942,598.14453125,538.0859375,452.63671875,19.53125,0.0
1693677055.5199976,-742.1875,-737.3046875,470.21484375,694.82421875,0.0
1693677055.523901,440.4296875,484.86328125,101.5625,-444.82421875,0.0
1693677055.5278044,-748.53515625,-713.8671875,-731.4453125,-733.88671875,0.0
1693677055.5317078,449.70703125,441.40625,272.4609375,-531.73828125,0.0
1693677055.5356112,-769.53125,-772.94921875,882.8125,520.5078125,0.0
1693677055.5395145,787.59765625,799.8046875,46.38671875,-207.03125,0.0
1693677055.5434182,-637.6953125,-654.78515625,-812.01171875,-130.37109375,0.0
1693677055.5473216,20.01953125,-99.12109375,-179.6875,-489.2578125,0.0
1693677055.551225,-795.41015625,-820.3125,842.7734375,318.359375,0.0
1693677055.5551765,914.55078125,927.734375,-214.84375,-217.7734375,0.0
1693677055.5590801,-623.046875,-618.1640625,-932.6171875,-75.1953125,0.0
1693677055.5629835,-741.2109375,-817.3828125,-768.06640625,-392.578125,0.0
1693677055.566887,883.7890625,813.96484375,485.3515625,303.7109375,0.0
1693677055.5707903,-829.58984375,-804.19921875,319.3359375,113.76953125,0.0
1693677055.5746937,-129.39453125,-55.17578125,-202.1484375,-598.14453125,0.0
1693677055.578597,-955.078125,-931.15234375,-695.3125,-705.56640625,0.0
1693677055.5825005,519.04296875,511.71875,444.82421875,-165.0390625,0.0
1693677055.5864038,-739.2578125,-748.046875,555.17578125,664.0625,0.0
1693677055.5903075,537.109375,602.5390625,-9.27734375,-456.0546875,0.0
1693677055.5942109,-742.1875,-708.984375,-783.203125,-643.5546875,0.0
1693677055.5981143,345.703125,294.43359375,201.171875,-572.75390625,0.0
1693677055.6020672,-765.625,-768.5546875,890.625,384.765625,0.0
1693677055.6059706,807.12890625,823.2421875,-24.4140625,-201.171875,0.0
1693677055.609874,-676.26953125,-693.359375,-833.984375,-22.4609375,0.0
1693677055.6137774,-167.48046875,-342.7734375,-397.94921875,-449.70703125,0.0
1693677055.6176808,-858.3984375,-912.59765625,579.58984375,2.9296875,0.0
1693677055.6215842,882.32421875,921.38671875,-181.640625,-106.93359375,0.0
1693677055.6254876,-550.29296875,-533.69140625,-885.7421875,4.8828125,0.0
1693677055.629391,-876.953125,-867.1875,-811.03515625,-546.38671875,0.0
1693677055.6332946,722.65625,713.37890625,452.63671875,279.296875,0.0
1693677055.637198,-771.97265625,-765.625,429.6875,539.55078125,0.0
1693677055.6411014,59.08203125,194.3359375,59.08203125,-550.29296875,0.0
1693677055.6450047,-897.94921875,-850.5859375,-647.94921875,-747.0703125,0.0
1693677055.6489537,499.0234375,482.91015625,463.37890625,-324.70703125,0.0
1693677055.652857,-756.34765625,-760.7421875,796.875,694.82421875,0.0
1693677055.6567605,661.62109375,710.44921875,86.42578125,-280.76171875,0.0
1693677055.6606638,-684.08203125,-676.26953125,-786.1328125,-424.8046875,0.0
1693677055.6645672,230.46875,146.484375,91.796875,-547.8515625,0.0
1693677055.6684706,-771.484375,-768.06640625,868.65234375,302.734375,0.0
1693677055.6723742,835.44921875,841.796875,-76.171875,-221.6796875,0.0
1693677055.6762776,-698.73046875,-705.078125,-849.609375,23.92578125,0.0
1693677055.680181,-520.5078125,-556.640625,-601.5625,-347.16796875,0.0
1693677055.6840844,-982.91015625,993.65234375,738.28125,434.08203125,0.0
1693677055.6879878,-928.7109375,-901.3671875,96.19140625,91.796875,0.0
1693677055.6918912,-430.17578125,-373.046875,-802.24609375,-292.96875,0.0
1693677055.6958349,-949.70703125,-943.84765625,-808.10546875,-588.8671875,0.0
1693677055.6997383,637.20703125,621.58203125,446.77734375,185.546875,0.0
1693677055.7036417,-747.55859375,-746.09375,451.66015625,724.12109375,0.0
1693677055.707545,251.46484375,419.921875,113.76953125,-502.9296875,0.0
1693677055.7114484,-831.0546875,-757.32421875,-699.21875,-761.23046875,0.0
1693677055.7153518,481.93359375,453.61328125,335.44921875,-388.18359375,0.0
1693677055.7192554,-781.25,-770.5078125,863.76953125,619.62890625,0.0
1693677055.7231588,786.1328125,788.57421875,78.125,-240.234375,0.0
1693677055.7270622,-623.53515625,-637.20703125,-786.1328125,-270.99609375,0.0
1693677055.7309656,48.33984375,17.578125,-127.44140625,-564.94140625,0.0
1693677055.734869,-775.87890625,-787.59765625,875.0,356.4453125,0.0
1693677055.7387724,855.95703125,895.01953125,142.578125,-123.046875,0.0
1693677055.7427125,-707.03125,-653.80859375,-756.34765625,12.20703125,0.0
1693677055.746616,-743.1640625,-740.72265625,-785.64453125,-354.98046875,0.0
1693677055.7505193,904.296875,884.765625,577.1484375,388.671875,0.0
1693677055.7544227,-860.83984375,-833.0078125,338.8671875,348.14453125,0.0
1693677055.7583263,-330.56640625,-152.34375,-386.71875,-442.87109375,0.0
1693677055.7622297,-996.09375,-959.47265625,-754.8828125,-725.09765625,0.0
1693677055.766133,541.9921875,522.4609375,436.03515625,16.6015625,0.0
1693677055.7700365,-746.09375,-740.234375,639.16015625,776.3671875,0.0
1693677055.7739398,522.4609375,538.0859375,225.5859375,-440.4296875,0.0
1693677055.7778432,-686.03515625,-742.1875,-772.4609375,-780.2734375,0.0
1693677055.7817469,433.59375,346.19140625,196.77734375,-568.84765625,0.0
1693677055.7856503,-776.3671875,-764.6484375,926.26953125,453.61328125,0.0
1693677055.789591,807.12890625,807.6171875,104.00390625,-204.1015625,0.0
1693677055.7934945,-666.50390625,-670.41015625,-808.59375,-62.01171875,0.0
1693677055.797398,-181.640625,-175.29296875,-334.9609375,-468.75,0.0
1693677055.8013015,-837.890625,-851.5625,851.07421875,372.0703125,0.0
1693677055.8052049,937.5,974.609375,57.12890625,-81.0546875,0.0
1693677055.8091083,-625.0,-543.9453125,-851.5625,-76.171875,0.0
1693677055.8130116,-812.98828125,-853.02734375,-810.05859375,-432.12890625,0.0
1693677055.816915,809.08203125,767.578125,482.91015625,339.84375,0.0
1693677055.8208187,-800.78125,-783.203125,411.62109375,461.42578125,0.0
1693677055.824722,-1.46484375,62.01171875,-46.875,-628.41796875,0.0
1693677055.8286254,-916.015625,-897.94921875,-675.29296875,-787.59765625,0.0
1693677055.8325288,506.34765625,498.53515625,447.265625,-247.55859375,0.0
1693677055.8364651,-752.9296875,-751.953125,732.421875,677.734375,0.0
1693677055.8403687,629.8828125,647.4609375,89.84375,-360.3515625,0.0
1693677055.8442721,-725.09765625,-699.70703125,-792.48046875,-505.859375,0.0
1693677055.8481755,243.65234375,233.88671875,180.6640625,-543.45703125,0.0
1693677055.852079,-767.08984375,-765.625,894.04296875,322.265625,0.0
1693677055.8559823,725.5859375,829.1015625,-27.34375,-83.0078125,0.0
1693677055.8598857,-726.07421875,-694.82421875,-841.30859375,71.77734375,0.0
1693677055.8637893,-354.00390625,-409.66796875,-520.99609375,-431.640625,0.0
1693677055.8676927,-926.7578125,-943.84765625,796.875,427.734375,0.0
1693677055.871596,-970.703125,-944.3359375,57.6171875,-41.9921875,0.0
1693677055.8754995,-495.1171875,-425.29296875,-860.3515625,-285.15625,0.0
1693677055.8794029,-880.37109375,-936.5234375,-816.89453125,-542.96875,0.0
1693677055.88336,716.796875,651.85546875,437.98828125,238.28125,0.0
1693677055.8872633,-766.11328125,-750.9765625,500.9765625,675.78125,0.0
1693677055.891167,254.8828125,288.0859375,138.671875,-502.44140625,0.0
1693677055.8950703,-829.58984375,-814.94140625,-661.62109375,-740.234375,0.0
1693677055.8989737,473.6328125,471.6796875,432.12890625,-485.83984375,0.0
1693677055.902877,-758.30078125,-766.11328125,845.703125,604.98046875,0.0
1693677055.9067805,712.40234375,750.9765625,103.515625,-225.5859375,0.0
1693677055.9106839,-685.05859375,-636.71875,-781.73828125,-322.265625,0.0
1693677055.9145875,125.9765625,113.28125,29.78515625,-550.78125,0.0
1693677055.918491,-768.06640625,-771.484375,871.58203125,287.109375,0.0
1693677055.9223943,842.28515625,849.12109375,-101.5625,-205.078125,0.0
1693677055.9262977,-707.03125,-705.078125,-856.4453125,-19.04296875,0.0
1693677055.9302502,-553.7109375,-668.9453125,-688.4765625,-350.5859375,0.0
1693677055.9341536,986.328125,937.5,656.73828125,434.08203125,0.0
1693677055.938057,-888.18359375,-873.046875,217.28515625,102.5390625,0.0
1693677055.9419603,-333.984375,-322.75390625,-643.5546875,-462.890625,0.0
1693677055.9458637,-938.4765625,-998.046875,-798.828125,-680.17578125,0.0
1693677055.9497674,623.046875,541.015625,454.58984375,17.08984375,0.0
1693677055.9536707,-746.09375,-738.28125,550.29296875,669.43359375,0.0
1693677055.9575741,440.91796875,480.95703125,168.45703125,-469.7265625,0.0
1693677055.9614775,-748.046875,-717.7734375,-737.3046875,-728.02734375,0.0
1693677055.965381,449.21875,442.3828125,273.92578125,-533.69140625,0.0
1693677055.9692845,-769.53125,-772.94921875,909.66796875,520.99609375,0.0
1693677055.973188,787.59765625,798.828125,88.8671875,-207.03125,0.0
1693677055.9771361,-637.6953125,-652.83203125,-803.22265625,-130.37109375,0.0
1693677055.9810398,19.53125,-86.9140625,-177.734375,-490.234375,0.0
1693677055.9849432,-794.921875,-817.87109375,861.81640625,320.3125,0.0
1693677055.9888465,914.55078125,926.26953125,-136.71875,-214.35546875,0.0
1693677055.99275,-623.53515625,-617.67578125,-899.90234375,-67.3828125,0.0
1693677055.9966536,-741.2109375,-816.89453125,-775.390625,-403.3203125,0.0
1693677056.000557,883.7890625,815.91796875,500.48828125,310.546875,0.0
1693677056.0044603,-829.58984375,-805.6640625,380.37109375,260.25390625,0.0
1693677056.0083637,-128.90625,-64.94140625,-163.57421875,-542.96875,0.0
1693677056.012267,-955.078125,-934.08203125,-699.70703125,-716.30859375,0.0
1693677056.0161707,519.04296875,513.18359375,434.08203125,-160.15625,0.0
1693677056.0200741,-739.2578125,-747.55859375,723.14453125,684.5703125,0.0
1693677056.024024,537.109375,598.6328125,170.8984375,-430.6640625,0.0
1693677056.0279276,-742.1875,-706.0546875,-788.0859375,-658.69140625,0.0
1693677056.031831,345.703125,304.6875,197.265625,-535.64453125,0.0
1693677056.0357344,-765.625,-768.5546875,913.0859375,423.828125,0.0
1693677056.0396378,807.12890625,821.77734375,42.96875,-200.1953125,0.0
1693677056.0435414,-670.8984375,-686.5234375,-830.078125,-12.20703125,0.0
1693677056.0474448,-173.828125,-338.37890625,-398.4375,-436.03515625,0.0
1693677056.0513482,-856.4453125,-907.2265625,828.125,383.7890625,0.0
1693677056.0552516,982.421875,-981.93359375,2.9296875,-102.5390625,0.0
1693677056.059155,-517.08984375,-502.44140625,-873.53515625,-140.625,0.0
1693677056.0630586,-890.13671875,-883.7890625,-809.5703125,-483.88671875,0.0
1693677056.066962,733.3984375,721.6796875,462.40234375,254.39453125,0.0
1693677056.070907,-775.390625,-768.06640625,505.37109375,573.73046875,0.0
1693677056.0748105,59.08203125,191.40625,85.44921875,-538.0859375,0.0
1693677056.0787141,-897.4609375,-852.05078125,-658.203125,-751.953125,0.0
1693677056.0826175,498.53515625,483.3984375,461.9140625,-322.75390625,0.0
1693677056.086521,-753.41796875,-760.25390625,867.67578125,694.3359375,0.0
1693677056.0904243,649.90234375,708.984375,193.84765625,-280.2734375,0.0
1693677056.0943277,-696.2890625,-673.828125,-771.484375,-441.89453125,0.0
1693677056.0982313,232.421875,152.83203125,86.42578125,-537.59765625,0.0
1693677056.1021347,-766.6015625,-768.5546875,892.578125,309.5703125,0.0
1693677056.106038,828.61328125,841.796875,-9.27734375,-241.69921875,0.0
1693677056.1099415,-695.3125,-704.58984375,-821.77734375,20.5078125,0.0
1693677056.113845,-417.48046875,-556.640625,-610.3515625,-350.5859375,0.0
1693677056.1177857,-947.265625,994.140625,665.52734375,365.72265625,0.0
1693677056.1216893,-944.82421875,-901.85546875,121.58203125,21.97265625,0.0
1693677056.1255927,-422.8515625,-376.46484375,-760.25390625,-292.48046875,0.0
1693677056.129496,-944.82421875,-938.96484375,-821.2890625,-586.9140625,0.0
1693677056.1333995,630.37109375,625.9765625,438.96484375,180.17578125,0.0
1693677056.137303,-750.48828125,-747.55859375,608.3984375,734.375,0.0
1693677056.1412065,409.1796875,441.40625,262.6953125,-521.484375,0.0
1693677056.14511,-761.71875,-747.55859375,-694.3359375,-812.01171875,0.0
1693677056.1490133,455.078125,449.70703125,275.390625,-467.7734375,0.0
1693677056.1529167,-772.4609375,-769.04296875,-939.453125,600.09765625,0.0
1693677056.1568203,788.0859375,788.0859375,549.31640625,-230.46875,0.0
1693677056.1607237,-635.7421875,-637.20703125,-722.65625,-306.640625,0.0
1693677056.1646605,13.18359375,19.04296875,-194.82421875,-589.84375,0.0
1693677056.1685638,-776.3671875,-791.50390625,953.61328125,391.6015625,0.0
1693677056.1724672,857.91015625,904.78515625,442.87109375,-52.24609375,0.0
1693677056.1763706,-711.42578125,-634.27734375,-658.69140625,5.37109375,0.0
1693677056.1802742,-730.46875,-764.16015625,-835.9375,-377.44140625,0.0
1693677056.1841776,883.30078125,865.234375,592.28515625,415.52734375,0.0
1693677056.188081,-832.51953125,-824.70703125,756.8359375,541.9921875,0.0
1693677056.1919844,-129.39453125,-130.859375,-51.26953125,-378.41796875,0.0
1693677056.195888,-955.078125,-954.1015625,-791.50390625,-750.9765625,0.0
1693677056.1997914,518.5546875,520.5078125,440.4296875,13.671875,0.0
1693677056.2036948,-737.79296875,-744.140625,935.05859375,840.33203125,0.0
1693677056.2075982,533.69140625,564.94140625,443.359375,-368.1640625,0.0
1693677056.211561,-730.95703125,-717.28515625,-778.3203125,-842.28515625,0.0
1693677056.2154646,363.28125,340.33203125,154.78515625,-507.32421875,0.0
1693677056.219368,-767.578125,-765.13671875,-960.9375,519.04296875,0.0
1693677056.2232714,807.12890625,810.546875,479.4921875,-222.16796875,0.0
1693677056.2271748,-670.41015625,-673.828125,-739.74609375,-62.01171875,0.0
1693677056.2310784,-175.29296875,-208.984375,-405.2734375,-498.53515625,0.0
1693677056.2349818,-853.02734375,-865.72265625,893.5546875,415.52734375,0.0
1693677056.2388852,977.05078125,988.76953125,515.625,35.64453125,0.0
1693677056.2427886,-549.31640625,-522.94921875,-612.79296875,-57.12890625,0.0
1693677056.2466922,-814.94140625,-871.09375,-897.94921875,-447.265625,0.0
1693677056.2505956,801.7578125,745.1171875,511.23046875,332.51953125,0.0
1693677056.254499,-792.48046875,-776.3671875,819.3359375,741.69921875,0.0
1693677056.258458,63.96484375,113.76953125,195.80078125,-515.13671875,0.0
1693677056.2623613,-897.94921875,-879.39453125,-714.84375,-836.42578125,0.0
1693677056.2662647,497.0703125,492.1875,437.01171875,-125.9765625,0.0
1693677056.270168,-748.046875,-754.8828125,-963.37890625,593.26171875,0.0
1693677056.2740717,628.41796875,675.29296875,500.0,-380.37109375,0.0
1693677056.277975,-720.21484375,-668.9453125,-755.37109375,-587.890625,0.0
1693677056.2818785,237.3046875,226.5625,91.30859375,-546.875,0.0
1693677056.2857819,-765.13671875,-768.5546875,-983.88671875,460.44921875,0.0
1693677056.2896855,825.1953125,834.47265625,437.01171875,-111.81640625,0.0
1693677056.2935889,-693.359375,-698.2421875,-730.46875,50.29296875,0.0
1693677056.2974923,-365.72265625,-488.76953125,-621.58203125,-445.80078125,0.0
1693677056.3013957,-929.6875,-974.609375,813.4765625,462.890625,0.0
1693677056.305349,-948.2421875,-927.24609375,603.515625,270.01953125,0.0
1693677056.3092525,-435.546875,-411.62109375,-553.7109375,-220.21484375,0.0
1693677056.3131561,-882.32421875,-945.3125,-916.015625,-560.546875,0.0
1693677056.3170595,714.35546875,632.32421875,476.07421875,271.484375,0.0
1693677056.320963,-763.671875,-748.53515625,836.42578125,802.24609375,0.0
1693677056.3248663,254.8828125,360.83984375,314.94140625,-458.0078125,0.0
1693677056.32877,-829.58984375,-783.203125,-699.70703125,-846.19140625,0.0
1693677056.3326733,473.6328125,461.9140625,382.32421875,-300.29296875,0.0
1693677056.3365767,-758.30078125,-770.01953125,-962.40234375,690.4296875,0.0
1693677056.34048,711.9140625,776.3671875,531.25,-266.11328125,0.0
1693677056.3443837,-685.05859375,-631.8359375,-723.6328125,-373.53515625,0.0
1693677056.348287,125.9765625,54.19921875,-95.703125,-604.98046875,0.0
1693677056.3522365,-768.5546875,-775.87890625,966.30859375,362.79296875,0.0
1693677056.35614,842.28515625,857.91015625,422.36328125,-96.6796875,0.0
1693677056.3600433,-707.03125,-705.078125,-673.33984375,-47.36328125,0.0
1693677056.3639467,-553.7109375,-737.3046875,-814.453125,-381.8359375,0.0
1693677056.3678503,987.79296875,894.53125,631.8359375,485.83984375,0.0
1693677056.3717537,-894.04296875,-846.19140625,709.9609375,377.9296875,0.0
1693677056.375657,-315.91796875,-229.4921875,-268.5546875,-410.64453125,0.0
1693677056.3795607,-1000.0,-975.5859375,-853.02734375,-679.6875,0.0
1693677056.383464,539.55078125,530.2734375,458.984375,205.078125,0.0
1693677056.3873675,-732.421875,-739.74609375,898.92578125,831.54296875,0.0
1693677056.3912709,438.96484375,518.06640625,419.43359375,-414.55078125,0.0
1693677056.3951745,-749.0234375,-719.7265625,-758.30078125,-827.63671875,0.0
1693677056.3991191,449.21875,396.97265625,209.47265625,-527.83203125,0.0
1693677056.4030225,-770.01953125,-770.5078125,-948.2421875,533.69140625,0.0
1693677056.406926,787.59765625,805.6640625,534.1796875,-215.8203125,0.0
1693677056.4108293,-637.6953125,-665.52734375,-723.6328125,-172.8515625,0.0
1693677056.414733,19.53125,-159.1796875,-313.96484375,-542.96875,0.0
1693677056.4186363,-796.875,-841.30859375,916.015625,398.4375,0.0
1693677056.4225397,912.59765625,957.03125,481.4453125,-61.5234375,0.0
1693677056.4264433,-609.375,-583.0078125,-625.9765625,-75.1953125,0.0
1693677056.4303467,-824.21875,-814.94140625,-892.08984375,-378.90625,0.0
1693677056.43425,820.3125,806.640625,532.71484375,413.57421875,0.0
1693677056.4381535,-812.01171875,-796.875,836.9140625,604.00390625,0.0
1693677056.4420571,-135.25390625,22.4609375,112.3046875,-480.95703125,0.0
1693677056.4460032,-953.125,-909.1796875,-749.0234375,-827.1484375,0.0
1693677056.4499068,522.4609375,502.9296875,434.5703125,-109.375,0.0
1693677056.4538102,-754.8828125,-749.0234375,998.53515625,815.91796875,0.0
1693677056.4577136,613.76953125,626.953125,486.81640625,-322.75390625,0.0
1693677056.461617,-671.875,-712.890625,-768.06640625,-758.7890625,0.0
1693677056.4655206,330.56640625,251.46484375,127.9296875,-544.43359375,0.0
1693677056.469424,-772.4609375,-765.625,-961.9140625,434.5703125,0.0
1693677056.4733274,823.2421875,825.1953125,458.0078125,-199.70703125,0.0
1693677056.477231,-687.5,-692.3828125,-752.44140625,-26.3671875,0.0
1693677056.4811344,-373.53515625,-367.1875,-536.62109375,-487.3046875,0.0
1693677056.4850378,-911.62109375,-924.31640625,849.609375,436.03515625,0.0
1693677056.4889412,-989.74609375,-958.49609375,592.28515625,84.9609375,0.0
1693677056.4928837,-532.2265625,-454.58984375,-560.05859375,-125.0,0.0
1693677056.4967873,-881.34765625,-896.97265625,-916.015625,-481.4453125,0.0
1693677056.5006907,720.703125,698.73046875,489.74609375,298.828125,0.0
1693677056.504594,-769.53125,-760.25390625,858.88671875,750.9765625,0.0
1693677056.5084977,210.44921875,254.8828125,294.43359375,-499.51171875,0.0
1693677056.512401,-845.21484375,-830.078125,-687.98828125,-842.28515625,0.0
1693677056.5163045,479.98046875,476.07421875,415.52734375,-307.12890625,0.0
1693677056.520208,-759.27734375,-762.6953125,-956.54296875,707.03125,0.0
1693677056.5241115,708.0078125,730.95703125,556.15234375,-266.11328125,0.0
1693677056.528015,-671.875,-661.1328125,-723.14453125,-520.99609375,0.0
1693677056.5319183,155.76171875,122.0703125,-18.5546875,-560.546875,0.0
1693677056.535822,-769.53125,-768.06640625,-998.53515625,400.390625,0.0
1693677056.5397592,840.8203125,844.23828125,467.7734375,-147.94921875,0.0
1693677056.5436625,-703.61328125,-706.54296875,-698.2421875,-41.9921875,0.0
1693677056.547566,-559.5703125,-577.1484375,-742.1875,-442.87109375,0.0
1693677056.5514693,998.53515625,977.5390625,737.79296875,477.5390625,0.0
1693677056.555373,-913.0859375,-887.6953125,720.21484375,221.6796875,0.0
1693677056.5592763,-407.71484375,-322.75390625,-406.25,-368.1640625,0.0
1693677056.5631797,-939.94140625,-983.3984375,-901.3671875,-633.7890625,0.0
1693677056.5670834,627.44140625,563.96484375,479.00390625,193.84765625,0.0
1693677056.5709867,-750.0,-737.3046875,900.87890625,785.64453125,0.0
1693677056.5748901,441.40625,451.66015625,401.3671875,-490.72265625,0.0
1693677056.5787935,-748.046875,-739.74609375,-750.48828125,-855.46875,0.0
1693677056.5826972,449.21875,447.265625,253.41796875,-460.44921875,0.0
1693677056.586636,-769.53125,-768.06640625,-942.3828125,599.609375,0.0
1693677056.5905395,787.59765625,788.0859375,556.640625,-229.00390625,0.0
1693677056.5944428,-636.23046875,-637.6953125,-718.75,-311.03515625,0.0
1693677056.5983465,13.18359375,19.04296875,-224.609375,-580.078125,0.0
1693677056.6022499,-777.83203125,-795.41015625,949.70703125,365.234375,0.0
1693677056.6061532,861.328125,913.0859375,478.02734375,-128.90625,0.0
1693677056.6100569,-706.54296875,-616.2109375,-640.625,-92.28515625,0.0
1693677056.6139603,-730.95703125,-792.96875,-860.3515625,-450.68359375,0.0
1693677056.6178637,883.7890625,842.28515625,580.078125,417.96875,0.0
1693677056.621767,-832.03125,-816.40625,832.03125,443.84765625,0.0
1693677056.6256707,-129.39453125,-117.1875,8.7890625,-559.5703125,0.0
1693677056.629574,-955.078125,-949.70703125,-795.8984375,-791.015625,0.0
1693677056.6335278,519.04296875,519.04296875,448.2421875,36.62109375,0.0
1693677056.6374314,-739.2578125,-746.58203125,-998.046875,812.01171875,0.0
1693677056.6413348,537.109375,581.54296875,474.12109375,-401.85546875,0.0
1693677056.6452382,-742.1875,-701.66015625,-779.296875,-833.49609375,0.0
1693677056.6491418,345.703125,336.9140625,143.5546875,-416.015625,0.0
1693677056.6530452,-765.625,-768.06640625,-941.40625,545.41015625,0.0
1693677056.6569486,807.12890625,815.91796875,536.62109375,-228.02734375,0.0
1693677056.660852,-671.38671875,-679.19921875,-730.95703125,-102.5390625,0.0
1693677056.6647556,-173.828125,-274.90234375,-442.3828125,-539.0625,0.0
1693677056.668659,-855.95703125,-883.7890625,907.71484375,428.22265625,0.0
1693677056.6725624,985.83984375,997.55859375,617.1875,-30.76171875,0.0
1693677056.676466,-532.2265625,-523.92578125,-574.70703125,-142.578125,0.0
1693677056.6804206,-816.40625,-882.32421875,-918.45703125,-448.73046875,0.0
1693677056.684324,806.640625,733.3984375,526.85546875,343.26171875,0.0
1693677056.6882277,-798.33984375,-777.34375,911.62109375,700.68359375,0.0
1693677056.692131,65.91796875,163.0859375,254.8828125,-559.08203125,0.0
1693677056.6960344,-798.33984375,-762.6953125,-615.72265625,-848.6328125,0.0
1693677056.6999378,530.76171875,520.99609375,472.65625,-130.859375,0.0
1693677056.7038414,-764.16015625,-773.92578125,-965.8203125,796.875,0.0
1693677056.7077448,636.23046875,702.1484375,568.84765625,-313.4765625,0.0
1693677056.7116482,-722.65625,-675.78125,-730.46875,-709.47265625,0.0
1693677056.7155519,237.3046875,183.10546875,46.875,-591.796875,0.0
1693677056.7194552,-765.13671875,-769.04296875,-970.21484375,417.96875,0.0
1693677056.7233586,825.1953125,839.84375,500.48828125,-189.94140625,0.0
1693677056.7273092,-693.359375,-702.1484375,-710.44921875,-58.10546875,0.0
1693677056.7312129,-366.2109375,-542.48046875,-669.921875,-459.9609375,0.0
1693677056.7351162,-923.828125,-992.67578125,806.640625,467.7734375,0.0
1693677056.7390196,-958.984375,-916.50390625,720.21484375,135.7421875,0.0
1693677056.7429233,-416.50390625,-390.13671875,-472.16796875,-297.36328125,0.0
1693677056.7468266,-853.02734375,-841.796875,-831.54296875,-456.54296875,0.0
1693677056.75073,671.38671875,662.59765625,525.87890625,312.5,0.0
1693677056.7546337,-764.16015625,-764.16015625,920.41015625,734.375,0.0
1693677056.758537,258.7890625,410.15625,374.0234375,-504.39453125,0.0
1693677056.7624404,-833.984375,-768.06640625,-725.09765625,-857.91015625,0.0
1693677056.766344,479.00390625,456.54296875,351.07421875,-432.12890625,0.0
1693677056.7702475,-774.4140625,-770.99609375,-932.12890625,640.625,0.0
1693677056.774194,767.08984375,786.62109375,590.33203125,-246.58203125,0.0
1693677056.7780974,-613.28125,-631.8359375,-712.40234375,-468.75,0.0
1693677056.782001,114.74609375,29.296875,-150.390625,-626.46484375,0.0
1693677056.7859044,-774.90234375,-782.2265625,982.421875,362.3046875,0.0
1693677056.7898078,851.5625,877.9296875,538.0859375,-141.11328125,0.0
1693677056.7937114,-703.61328125,-678.7109375,-640.13671875,-77.1484375,0.0
1693677056.7976148,-743.65234375,-737.3046875,-835.9375,-390.625,0.0
1693677056.8015182,904.296875,889.16015625,625.9765625,487.3046875,0.0
1693677056.8054218,-860.83984375,-837.890625,828.61328125,324.70703125,0.0
1693677056.8093252,-330.56640625,-177.734375,-85.9375,-412.109375,0.0
1693677056.8132286,-996.58203125,-964.84375,-836.9140625,-692.3828125,0.0
1693677056.8171322,541.50390625,524.90234375,459.47265625,77.1484375,0.0
1693677056.821075,-742.1875,-740.234375,986.81640625,798.33984375,0.0
1693677056.8249786,499.51171875,535.15625,460.44921875,-482.421875,0.0
1693677056.828882,-703.125,-731.4453125,-770.99609375,-899.90234375,0.0
1693677056.8327854,438.4765625,362.3046875,177.734375,-521.97265625,0.0
1693677056.836689,-776.85546875,-767.08984375,-922.8515625,527.34375,0.0
1693677056.8405924,805.6640625,807.6171875,574.21875,-215.33203125,0.0
1693677056.844496,-663.0859375,-669.921875,-719.7265625,-189.453125,0.0
1693677056.8483994,-160.15625,-175.78125,-371.09375,-549.8046875,0.0
1693677056.8523028,-833.49609375,-850.09765625,941.89453125,401.85546875,0.0
1693677056.8562064,934.5703125,972.16796875,617.67578125,-66.89453125,0.0
1693677056.8601098,-623.046875,-557.6171875,-597.16796875,-68.84765625,0.0
1693677056.8640132,-814.94140625,-821.77734375,-912.109375,-403.3203125,0.0
1693677056.8679566,811.03515625,795.8984375,542.96875,379.39453125,0.0
1693677056.8718603,-802.734375,-790.52734375,929.6875,548.33984375,0.0
1693677056.8757637,-30.2734375,63.96484375,202.63671875,-624.0234375,0.0
1693677056.879667,-924.31640625,-897.94921875,-745.1171875,-877.44140625,0.0
1693677056.8835707,508.7890625,498.53515625,442.87109375,-143.06640625,0.0
1693677056.887474,-750.48828125,-750.9765625,-930.17578125,789.55078125,0.0
1693677056.8913774,619.62890625,643.5546875,530.2734375,-353.02734375,0.0
1693677056.895281,-692.3828125,-704.1015625,-757.32421875,-796.38671875,0.0
1693677056.8991845,290.52734375,234.375,111.81640625,-538.0859375,0.0
1693677056.9030879,-769.04296875,-763.671875,-938.96484375,431.15234375,0.0
1693677056.9069915,824.21875,826.171875,544.43359375,-202.63671875,0.0
1693677056.9108949,-689.453125,-693.359375,-725.09765625,-29.296875,0.0
1693677056.9148335,-371.58203125,-365.234375,-593.26171875,-485.3515625,0.0
1693677056.9187372,-916.50390625,-928.22265625,855.95703125,437.01171875,0.0
1693677056.9226406,-979.00390625,-950.68359375,737.79296875,-13.18359375,0.0
1693677056.926544,-507.8125,-423.828125,-497.55859375,-236.328125,0.0
1693677056.9304476,-879.8828125,-928.22265625,-943.84765625,-515.625,0.0
1693677056.934351,717.28515625,662.109375,502.9296875,256.8359375,0.0
1693677056.9382544,-767.08984375,-752.9296875,945.80078125,738.28125,0.0
1693677056.942158,254.8828125,283.69140625,340.33203125,-563.96484375,0.0
1693677056.9460614,-829.58984375,-816.89453125,-699.21875,-890.13671875,0.0
1693677056.9499648,473.6328125,472.65625,404.78515625,-297.36328125,0.0
1693677056.9538684,-758.30078125,-766.11328125,-915.0390625,704.58984375,0.0
1693677056.9577718,712.40234375,750.0,599.609375,-267.08984375,0.0
1693677056.961706,-685.05859375,-635.25390625,-717.28515625,-516.6015625,0.0
1693677056.9656093,125.48828125,117.67578125,-55.6640625,-576.66015625,0.0
1693677056.969513,-758.7890625,-762.20703125,-977.05078125,398.92578125,0.0
1693677056.9734163,832.03125,838.37890625,530.76171875,-187.5,0.0
1693677056.9773197,-708.49609375,-706.54296875,-665.52734375,-93.75,0.0
1693677056.9812233,-356.93359375,-471.19140625,-590.8203125,-246.09375,0.0
1693677056.9851267,-937.98828125,-987.79296875,787.109375,559.5703125,0.0
1693677056.9890301,-921.875,-905.2734375,817.3828125,152.83203125,0.0
1693677056.9929338,-318.359375,-296.875,-237.79296875,-449.70703125,0.0
1693677056.9968371,-943.84765625,-1000.0,-901.3671875,-660.64453125,0.0
1693677057.0007405,623.046875,540.0390625,484.375,205.078125,0.0
1693677057.0046442,-746.09375,-738.76953125,990.234375,779.78515625,0.0
1693677057.008599,441.40625,485.3515625,444.82421875,-489.2578125,0.0
1693677057.0125027,-748.046875,-713.8671875,-756.8359375,-855.95703125,0.0
1693677057.016406,449.21875,441.40625,234.86328125,-464.35546875,0.0
1693677057.0203097,-769.53125,-771.97265625,-915.52734375,596.6796875,0.0
1693677057.024213,787.59765625,797.36328125,609.86328125,-229.00390625,0.0
1693677057.0281165,-637.6953125,-651.3671875,-704.58984375,-307.6171875,0.0
1693677057.03202,20.01953125,-78.125,-268.06640625,-589.35546875,0.0
1693677057.0359235,-794.921875,-815.91796875,974.609375,386.23046875,0.0
1693677057.0398269,914.55078125,925.29296875,613.28125,-121.58203125,0.0
1693677057.0437305,-623.046875,-618.1640625,-595.21484375,-137.6953125,0.0
1693677057.047634,-741.2109375,-812.5,-908.203125,-452.63671875,0.0
1693677057.0515375,883.7890625,815.4296875,571.77734375,422.8515625,0.0
1693677057.0554872,-830.078125,-803.22265625,957.03125,499.51171875,0.0
1693677057.0593905,-128.90625,-31.25,116.2109375,-539.55078125,0.0
1693677057.0632942,-967.7734375,-937.98828125,-805.17578125,-799.8046875,0.0
1693677057.0671976,536.62109375,526.3671875,476.07421875,39.55078125,0.0
1693677057.071101,-736.81640625,-745.60546875,-917.48046875,812.5,0.0
1693677057.0750046,249.51171875,322.265625,223.6328125,-396.484375,0.0
1693677057.078908,-766.6015625,-727.05078125,-800.78125,-833.984375,0.0
1693677057.0828116,431.640625,377.9296875,219.7265625,-562.5,0.0
1693677057.086715,-805.17578125,-807.6171875,-966.796875,466.30859375,0.0
1693677057.0906184,822.75390625,838.8671875,577.1484375,-201.66015625,0.0
1693677057.094522,-673.828125,-690.91796875,-729.00390625,-111.81640625,0.0
1693677057.0984254,-173.828125,-346.6796875,-500.48828125,-539.55078125,0.0
1693677057.1023772,-856.4453125,-913.0859375,907.2265625,435.546875,0.0
1693677057.1062806,981.93359375,-973.14453125,740.72265625,-15.625,0.0
1693677057.110184,-516.11328125,-485.3515625,-525.390625,-150.87890625,0.0
1693677057.1140876,-893.06640625,-882.8125,-942.87109375,-449.70703125,0.0
1693677057.117991,730.95703125,719.23828125,527.34375,345.21484375,0.0
1693677057.1218946,-774.4140625,-766.6015625,990.72265625,694.82421875,0.0
1693677057.125798,59.08203125,219.7265625,315.91796875,-552.24609375,0.0
1693677057.1297014,-897.94921875,-841.796875,-705.56640625,-852.05078125,0.0
1693677057.133605,501.953125,479.4921875,438.4765625,-236.328125,0.0
1693677057.1375084,-765.625,-759.27734375,-902.83203125,760.25390625,0.0
1693677057.141412,699.21875,711.42578125,613.76953125,-298.828125,0.0
1693677057.1453154,-643.06640625,-679.6875,-719.7265625,-715.33203125,0.0
1693677057.1492631,222.16796875,138.671875,-2.9296875,-613.28125,0.0
1693677057.1531665,-771.97265625,-768.06640625,-950.1953125,412.109375,0.0
1693677057.1570702,838.37890625,842.28515625,604.4921875,-178.22265625,0.0
1693677057.1609735,-700.1953125,-705.56640625,-676.7578125,-79.58984375,0.0
1693677057.1648772,-561.5234375,-555.17578125,-727.5390625,-467.28515625,0.0
1693677057.1687806,-997.55859375,990.72265625,791.50390625,469.7265625,0.0
1693677057.172684,-922.36328125,-896.484375,866.69921875,167.96875,0.0
1693677057.1765876,-433.59375,-350.09765625,-359.375,-285.64453125,0.0
1693677057.180491,-942.3828125,-957.03125,-939.94140625,-575.68359375,0.0
1693677057.1843946,630.859375,600.5859375,503.41796875,228.515625,0.0
1693677057.188298,-750.48828125,-742.67578125,-981.4453125,772.94921875,0.0
1693677057.1922014,397.94921875,440.91796875,428.22265625,-542.96875,0.0
1693677057.1961439,-767.08984375,-748.046875,-746.09375,-906.73828125,0.0
1693677057.2000475,457.03125,450.1953125,291.50390625,-472.65625,0.0
1693677057.203951,-772.94921875,-769.04296875,-896.97265625,615.234375,0.0
1693677057.2078545,788.0859375,788.0859375,642.578125,-238.28125,0.0
1693677057.211758,-634.765625,-637.20703125,-706.0546875,-484.86328125,0.0
1693677057.2156615,16.11328125,18.5546875,-213.8671875,-636.23046875,0.0
1693677057.219565,-776.3671875,-790.0390625,998.53515625,381.8359375,0.0
1693677057.2234683,857.91015625,901.3671875,636.71875,-112.79296875,0.0
1693677057.227372,-710.44921875,-642.08984375,-606.93359375,-69.82421875,0.0
1693677057.2312753,-734.375,-752.9296875,-869.140625,-419.921875,0.0
1693677057.235179,890.13671875,873.046875,633.7890625,472.65625,0.0
1693677057.2390823,-841.30859375,-826.66015625,997.0703125,371.58203125,0.0
1693677057.2430215,-192.87109375,-129.8828125,58.59375,-514.16015625,0.0
1693677057.246925,-967.7734375,-954.58984375,-833.984375,-752.44140625,0.0
1693677057.2508285,526.3671875,520.5078125,472.16796875,16.11328125,0.0
1693677057.2547321,-741.2109375,-743.1640625,-910.15625,818.84765625,0.0
1693677057.2586355,532.2265625,561.03515625,504.39453125,-436.5234375,0.0
1693677057.2625391,-723.14453125,-720.703125,-779.296875,-922.36328125,0.0
1693677057.2664425,375.48828125,341.30859375,147.94921875,-513.671875,0.0
1693677057.270346,-769.04296875,-764.6484375,-895.99609375,524.90234375,0.0
1693677057.2742496,807.12890625,809.08203125,643.06640625,-215.8203125,0.0
1693677057.278153,-668.9453125,-672.8515625,-712.890625,-168.45703125,0.0
1693677057.2820566,-178.22265625,-194.82421875,-442.3828125,-549.8046875,0.0
1693677057.28596,-846.19140625,-861.328125,953.125,416.015625,0.0
1693677057.2899,959.47265625,986.81640625,764.16015625,-63.96484375,0.0
1693677057.2938035,-583.49609375,-522.4609375,-544.921875,-102.5390625,0.0
1693677057.297707,-812.5,-868.65234375,-938.96484375,-441.40625,0.0
1693677057.3016105,802.734375,749.0234375,551.26953125,333.0078125,0.0
1693677057.3055139,-793.9453125,-777.83203125,-967.7734375,674.8046875,0.0
1693677057.3094175,63.96484375,103.515625,284.1796875,-628.90625,0.0
1693677057.3133209,-897.94921875,-882.8125,-740.234375,-918.9453125,0.0
1693677057.3172245,497.0703125,494.140625,445.80078125,-128.90625,0.0
1693677057.321128,-748.046875,-755.37109375,-890.13671875,803.7109375,0.0
1693677057.3250315,627.9296875,674.31640625,596.19140625,-320.3125,0.0
1693677057.328935,-720.21484375,-669.43359375,-725.09765625,-791.50390625,0.0
1693677057.3328383,237.3046875,228.02734375,74.21875,-541.015625,0.0
1693677057.3367739,-765.13671875,-768.5546875,-922.36328125,445.80078125,0.0
1693677057.3406773,825.1953125,834.47265625,615.72265625,-211.42578125,0.0
1693677057.3445807,-693.359375,-698.2421875,-693.84765625,-55.17578125,0.0
1693677057.3484843,-365.234375,-495.1171875,-658.203125,-499.51171875,0.0
1693677057.3523877,-929.19921875,-976.07421875,848.6328125,463.37890625,0.0
1693677057.3562913,-947.75390625,-927.24609375,866.2109375,83.984375,0.0
1693677057.3601947,-435.546875,-415.0390625,-427.24609375,-311.03515625,0.0
1693677057.3640983,-882.32421875,-944.82421875,-962.40234375,-548.33984375,0.0
1693677057.3680017,713.8671875,631.8359375,512.20703125,271.484375,0.0
1693677057.371905,-764.16015625,-748.53515625,-967.28515625,756.8359375,0.0
1693677057.3758087,254.8828125,366.69921875,388.671875,-544.921875,0.0
1693677057.379712,-829.58984375,-780.76171875,-714.84375,-900.87890625,0.0
1693677057.3836677,473.6328125,460.9375,380.37109375,-296.38671875,0.0
1693677057.3875713,-758.30078125,-769.04296875,-877.44140625,707.51953125,0.0
1693677057.3914747,712.40234375,775.390625,661.62109375,-283.69140625,0.0
1693677057.3953784,-685.05859375,-629.39453125,-700.1953125,-519.04296875,0.0
1693677057.3992817,125.9765625,60.546875,-115.234375,-631.34765625,0.0
1693677057.4031851,-768.5546875,-776.85546875,-993.1640625,174.8046875,0.0
1693677057.4070888,842.28515625,859.86328125,662.109375,-234.86328125,0.0
1693677057.4109921,-707.03125,-701.171875,-610.3515625,-98.6328125,0.0
1693677057.4148958,-553.7109375,-736.81640625,-853.515625,-466.796875,0.0
1693677057.4187992,987.79296875,893.5546875,678.22265625,501.46484375,0.0
1693677057.4227028,-894.04296875,-843.75,994.62890625,306.640625,0.0
1693677057.4266062,-315.91796875,-219.23828125,-79.58984375,-431.640625,0.0
1693677057.4305573,-1000.0,-973.6328125,-886.71875,-671.38671875,0.0
1693677057.4344609,540.0390625,529.296875,492.1875,208.0078125,0.0
1693677057.4383643,-732.421875,-739.74609375,-903.3203125,805.17578125,0.0
1693677057.442268,438.96484375,521.484375,490.72265625,-471.19140625,0.0
1693677057.4461713,-749.0234375,-719.7265625,-764.16015625,-857.421875,0.0
1693677057.450075,449.21875,393.5546875,207.51953125,-513.18359375,0.0
1693677057.4539783,-770.01953125,-770.99609375,-884.27734375,555.6640625,0.0
1693677057.4578817,787.59765625,808.10546875,670.41015625,-218.75,0.0
1693677057.4617853,-637.6953125,-668.45703125,-700.68359375,-306.640625,0.0
1693677057.4656887,20.01953125,-177.24609375,-353.515625,-598.6328125,0.0
1693677057.4695923,-796.38671875,-846.6796875,993.65234375,411.62109375,0.0
1693677057.4734957,912.59765625,962.890625,749.51171875,-68.359375,0.0
1693677057.4774425,-609.375,-577.63671875,-567.87109375,-128.41796875,0.0
1693677057.4813461,-824.70703125,-814.453125,-931.640625,-444.82421875,0.0
1693677057.4852495,825.68359375,805.17578125,576.66015625,425.29296875,0.0
1693677057.489153,-817.87109375,-795.41015625,-963.37890625,527.34375,0.0
1693677057.4930565,-133.30078125,36.62109375,228.515625,-520.01953125,0.0
1693677057.49696,-853.515625,-905.76171875,-671.875,-809.08203125,0.0
1693677057.5008636,556.640625,500.9765625,486.328125,-68.359375,0.0
1693677057.504767,-771.484375,-748.53515625,-895.5078125,830.078125,0.0
1693677057.5086706,621.58203125,626.953125,563.4765625,-386.23046875,0.0
1693677057.512574,-674.31640625,-713.8671875,-762.6953125,-895.99609375,0.0
1693677057.5164776,330.56640625,248.53515625,109.375,-577.63671875,0.0
1693677057.520381,-772.4609375,-765.13671875,-892.08984375,447.75390625,0.0
1693677057.52433,823.73046875,826.171875,643.06640625,-100.5859375,0.0
1693677057.5282335,-692.87109375,-697.75390625,-725.09765625,-61.03515625,0.0
1693677057.532137,-367.1875,-360.83984375,-571.77734375,-555.6640625,0.0
1693677057.5360405,-913.57421875,-927.24609375,890.625,449.70703125,0.0
1693677057.539944,910.64453125,943.84765625,768.06640625,95.21484375,0.0
1693677057.5438476,-566.40625,-481.93359375,-491.69921875,-109.375,0.0
1693677057.547751,-863.28125,-887.20703125,-946.2890625,-482.91015625,0.0
1693677057.5516546,710.44921875,684.08203125,515.625,311.03515625,0.0
1693677057.555558,-765.625,-755.859375,-966.30859375,729.4921875,0.0
1693677057.5594616,246.58203125,253.90625,374.51171875,-579.58984375,0.0
1693677057.563365,-832.51953125,-830.078125,-703.61328125,-908.69140625,0.0
1693677057.5672684,475.09765625,476.5625,415.0390625,-312.01171875,0.0
1693677057.5712128,-759.27734375,-765.13671875,-872.0703125,723.6328125,0.0
1693677057.5751164,712.40234375,738.28125,656.25,-284.1796875,0.0
1693677057.5790198,-685.05859375,-651.3671875,-710.9375,-721.19140625,0.0
1693677057.5829234,125.48828125,121.09375,-53.22265625,-614.74609375,0.0
1693677057.5868268,-768.5546875,-768.5546875,-933.10546875,423.33984375,0.0
1693677057.5907302,842.28515625,845.703125,676.26953125,-161.62109375,0.0
1693677057.5946338,-706.54296875,-706.0546875,-652.34375,-75.68359375,0.0
1693677057.5985372,-555.17578125,-601.5625,-778.80859375,-476.5625,0.0
1693677057.6024408,989.74609375,967.28515625,764.16015625,485.83984375,0.0
1693677057.6063442,-894.53125,-883.7890625,990.72265625,192.3828125,0.0
1693677057.6102479,-354.00390625,-322.265625,-197.75390625,-404.78515625,0.0
1693677057.6141512,-938.96484375,-989.2578125,-929.6875,-636.23046875,0.0
1693677057.618091,624.0234375,555.6640625,509.765625,189.453125,0.0
1693677057.6219947,-747.0703125,-738.76953125,-901.85546875,800.29296875,0.0
1693677057.6258981,441.40625,468.75,474.609375,-521.97265625,0.0
1693677057.6298018,-748.046875,-726.5625,-756.8359375,-934.5703125,0.0
1693677057.6337051,449.21875,443.84765625,250.48828125,-463.37890625,0.0
1693677057.6376088,-769.53125,-768.06640625,-872.55859375,610.3515625,0.0
1693677057.6415122,787.59765625,789.55078125,681.640625,-237.3046875,0.0
1693677057.6454155,-636.71875,-640.13671875,-694.82421875,-426.7578125,0.0
1693677057.6493192,17.08984375,1.46484375,-265.13671875,-625.9765625,0.0
1693677057.6532226,-787.59765625,-799.31640625,-971.6796875,395.01953125,0.0
1693677057.6571262,891.6015625,916.015625,763.671875,-112.79296875,0.0
1693677057.6610296,-659.1796875,-614.74609375,-574.70703125,-89.35546875,0.0
1693677057.664965,-736.81640625,-797.8515625,-904.78515625,-453.61328125,0.0
1693677057.6688685,883.7890625,833.49609375,623.046875,420.8984375,0.0
1693677057.672772,-831.0546875,-811.5234375,-927.734375,481.93359375,0.0
1693677057.6766756,-129.39453125,-76.66015625,142.08984375,-545.8984375,0.0
1693677057.680579,-955.078125,-937.98828125,-821.77734375,-795.41015625,0.0
1693677057.6844826,519.04296875,514.16015625,470.703125,34.1796875,0.0
1693677057.688386,-738.76953125,-745.60546875,-879.39453125,820.3125,0.0
1693677057.6922896,537.109375,592.28515625,533.203125,-406.73828125,0.0
1693677057.696193,-742.1875,-691.89453125,-770.5078125,-891.6015625,0.0
1693677057.7000966,345.703125,333.49609375,124.51171875,-509.765625,0.0
1693677057.704,-765.625,-769.53125,-865.234375,520.5078125,0.0
1693677057.7079036,807.12890625,819.3359375,699.70703125,-216.30859375,0.0
1693677057.7118406,-670.8984375,-683.10546875,-711.42578125,-109.375,0.0
1693677057.715744,-173.828125,-312.5,-482.91015625,-537.109375,0.0
1693677057.7196476,-855.95703125,-898.92578125,953.61328125,430.6640625,0.0
1693677057.723551,984.86328125,-987.79296875,856.4453125,-31.25,0.0
1693677057.7274547,-528.3203125,-504.39453125,-487.3046875,-150.87890625,0.0
1693677057.731358,-836.42578125,-884.765625,-958.0078125,-447.75390625,0.0
1693677057.7352617,783.203125,722.16796875,553.22265625,339.35546875,0.0
1693677057.739165,-787.109375,-768.5546875,-908.69140625,711.9140625,0.0
1693677057.7430687,62.5,187.01171875,349.12109375,-595.21484375,0.0
1693677057.746972,-897.94921875,-853.515625,-723.6328125,-904.78515625,0.0
1693677057.7508757,497.0703125,483.88671875,441.40625,-126.953125,0.0
1693677057.754779,-748.53515625,-759.765625,-864.2578125,800.29296875,0.0
1693677057.758736,628.41796875,707.03125,638.18359375,-321.2890625,0.0
1693677057.7626393,-725.09765625,-669.43359375,-719.7265625,-743.65234375,0.0
1693677057.766543,243.1640625,163.0859375,24.4140625,-611.81640625,0.0
1693677057.7704463,-767.08984375,-769.04296875,-906.73828125,411.1328125,0.0
1693677057.77435,725.5859375,841.30859375,610.3515625,-103.02734375,0.0
1693677057.7782533,-727.5390625,-704.1015625,-696.77734375,-81.54296875,0.0
1693677057.782157,-349.609375,-557.12890625,-700.68359375,-514.16015625,0.0
1693677057.7860603,-937.01171875,994.140625,827.1484375,478.515625,0.0
1693677057.789964,-950.1953125,-902.34375,968.75,126.953125,0.0
1693677057.7938673,-417.96875,-377.44140625,-336.42578125,-300.78125,0.0
1693677057.797771,-953.125,-939.94140625,-960.9375,-554.6875,0.0
1693677057.8016744,637.20703125,626.953125,518.5546875,273.92578125,0.0
1693677057.8056269,-748.046875,-747.55859375,-910.64453125,760.7421875,0.0
1693677057.8095303,251.46484375,420.8984375,440.4296875,-548.828125,0.0
1693677057.813434,-831.0546875,-756.8359375,-729.98046875,-905.76171875,0.0
1693677057.8173373,479.4921875,453.61328125,337.40234375,-437.5,0.0
1693677057.821241,-776.3671875,-770.5078125,-857.91015625,637.6953125,0.0
1693677057.8251443,775.87890625,788.57421875,700.1953125,-247.0703125,0.0
1693677057.829048,-602.05078125,-636.71875,-695.80078125,-506.8359375,0.0
1693677057.8329513,112.79296875,17.08984375,-189.453125,-640.625,0.0
1693677057.836855,-774.90234375,-786.62109375,-948.73046875,368.1640625,0.0
1693677057.8407583,852.05078125,892.08984375,748.046875,-121.58203125,0.0
1693677057.844662,-703.61328125,-659.1796875,-591.30859375,-133.7890625,0.0
1693677057.8485653,-743.65234375,-738.28125,-872.55859375,-455.078125,0.0
1693677057.8525143,904.296875,886.71875,669.43359375,502.44140625,0.0
1693677057.8564177,-860.83984375,-833.49609375,-910.64453125,337.890625,0.0
1693677057.8603213,-330.56640625,-151.85546875,77.1484375,-413.57421875,0.0
1693677057.8642247,-996.09375,-959.47265625,-854.98046875,-686.03515625,0.0
1693677057.8681283,541.9921875,521.97265625,481.93359375,70.80078125,0.0
1693677057.8720317,-746.09375,-740.234375,-866.69921875,725.09765625,0.0
1693677057.8759353,522.4609375,539.55078125,527.34375,-486.328125,0.0
1693677057.8798387,-686.03515625,-737.79296875,-776.3671875,-888.671875,0.0
1693677057.8837423,434.08203125,349.12109375,149.90234375,-533.69140625,0.0
1693677057.8876457,-776.3671875,-765.13671875,-846.6796875,540.0390625,0.0
1693677057.8915493,807.12890625,807.6171875,711.42578125,-219.7265625,0.0
1693677057.8954527,-666.50390625,-670.41015625,-704.58984375,-297.8515625,0.0
1693677057.8993971,-181.640625,-174.8046875,-327.1484375,-498.046875,0.0
1693677057.9033008,-837.890625,-853.515625,-978.02734375,453.61328125,0.0
1693677057.9072042,937.01171875,979.00390625,833.984375,-85.44921875,0.0
1693677057.9111078,-625.48828125,-538.0859375,-516.11328125,-74.70703125,0.0
1693677057.9150112,-809.08203125,-843.26171875,-952.1484375,-432.12890625,0.0
1693677057.9189148,803.7109375,776.3671875,577.1484375,383.7890625,0.0
1693677057.9228182,-794.921875,-785.64453125,-882.32421875,611.328125,0.0
1693677057.9267218,63.96484375,62.5,311.03515625,-590.33203125,0.0
1693677057.9306252,-897.94921875,-897.94921875,-753.41796875,-882.8125,0.0
1693677057.9345288,496.58203125,499.51171875,448.73046875,-150.390625,0.0
1693677057.9384322,-748.046875,-755.859375,-856.4453125,813.4765625,0.0
1693677057.9423358,628.41796875,664.0625,617.1875,-352.5390625,0.0
1693677057.9462812,-720.21484375,-681.640625,-729.4921875,-914.0625,0.0
1693677057.9501846,237.3046875,229.4921875,94.7265625,-560.546875,0.0
1693677057.9540882,-765.13671875,-762.6953125,-897.94921875,449.21875,0.0
1693677057.9579918,825.1953125,826.171875,606.93359375,-224.609375,0.0
1693677057.9618952,-690.91796875,-692.87109375,-730.95703125,42.48046875,0.0
1693677057.9657989,-373.046875,-367.1875,-583.49609375,-400.87890625,0.0
1693677057.9697022,-911.62109375,-924.8046875,851.5625,391.11328125,0.0
1693677057.9736059,-989.74609375,-958.984375,586.9140625,-85.9375,0.0
1693677057.9775093,-532.2265625,-446.77734375,-563.4765625,-223.6328125,0.0
1693677057.981413,-879.8828125,-920.8984375,-922.8515625,-505.37109375,0.0
1693677057.9853163,719.23828125,673.33984375,497.55859375,242.67578125,0.0
1693677057.98922,-768.5546875,-755.37109375,950.1953125,453.61328125,0.0
1693677057.9931607,240.72265625,253.41796875,337.40234375,-658.69140625,0.0
1693677057.9970644,-834.47265625,-830.078125,-696.77734375,-797.8515625,0.0
1693677058.000968,476.07421875,476.07421875,415.52734375,-491.69921875,0.0
1693677058.0048714,-759.27734375,-765.13671875,-920.8984375,555.17578125,0.0
1693677058.008775,712.40234375,738.76953125,580.56640625,-326.66015625,0.0
1693677058.0126784,-685.05859375,-650.390625,-712.40234375,-508.30078125,0.0
1693677058.016582,125.48828125,120.60546875,-47.36328125,-607.421875,0.0
1693677058.0204854,-768.5546875,-770.01953125,-969.23828125,270.5078125,0.0
1693677058.024389,842.28515625,846.6796875,557.12890625,-267.578125,0.0
1693677058.0282924,-707.03125,-705.56640625,-662.59765625,-65.4296875,0.0
1693677058.032196,-553.7109375,-629.8828125,-775.390625,-413.0859375,0.0
1693677058.0360994,987.3046875,955.078125,736.328125,372.55859375,0.0
1693677058.0400362,-889.16015625,-879.39453125,882.32421875,-102.5390625,0.0
1693677058.0439396,-337.890625,-323.2421875,-218.26171875,-499.0234375,0.0
1693677058.0478432,-938.4765625,-994.140625,-899.90234375,-657.71484375,0.0
1693677058.0517466,623.046875,547.8515625,500.9765625,9.27734375,0.0
1693677058.0556502,-746.58203125,-739.2578125,-937.01171875,605.46875,0.0
1693677058.0595536,440.91796875,478.515625,456.54296875,-567.3828125,0.0
1693677058.0634573,-748.046875,-719.23828125,-755.37109375,-809.08203125,0.0
1693677058.0673606,449.70703125,442.3828125,247.0703125,-545.41015625,0.0
1693677058.0712643,-770.01953125,-770.99609375,-893.06640625,532.2265625,0.0
1693677058.075168,787.59765625,795.41015625,630.859375,-209.9609375,0.0
1693677058.0790713,-637.6953125,-647.94921875,-703.125,-224.12109375,0.0
1693677058.082975,19.53125,-54.19921875,-270.01953125,-521.97265625,0.0
1693677058.0869129,-794.921875,-811.03515625,-998.53515625,316.40625,0.0
1693677058.0908163,914.55078125,922.8515625,662.109375,-246.58203125,0.0
1693677058.09472,-623.53515625,-617.1875,-587.890625,-45.41015625,0.0
1693677058.0986233,-741.2109375,-805.6640625,-904.78515625,-402.34375,0.0
1693677058.102527,883.30078125,822.265625,596.6796875,303.22265625,0.0
1693677058.1064303,-830.078125,-806.640625,-980.95703125,285.15625,0.0
1693677058.110334,-129.39453125,-45.41015625,167.96875,-589.84375,0.0
1693677058.1142373,-955.078125,-928.7109375,-788.57421875,-792.48046875,0.0
1693677058.118141,519.04296875,510.7421875,461.9140625,-152.83203125,0.0
1693677058.1220446,-739.2578125,-747.0703125,-883.30078125,692.3828125,0.0
1693677058.125948,537.109375,604.00390625,535.64453125,-398.92578125,0.0
1693677058.1298516,-742.1875,-696.77734375,-762.6953125,-665.0390625,0.0
1693677058.1338034,345.703125,308.59375,129.39453125,-565.91796875,0.0
1693677058.137707,-765.625,-768.5546875,-887.6953125,412.59765625,0.0
1693677058.1416104,807.12890625,821.2890625,620.60546875,-193.359375,0.0
1693677058.145514,-670.8984375,-686.5234375,-726.5625,-41.015625,0.0
1693677058.1494174,-173.828125,-334.47265625,-493.1640625,-460.9375,0.0
1693677058.153321,-856.4453125,-909.66796875,920.41015625,387.6953125,0.0
1693677058.1572244,981.93359375,-975.5859375,784.1796875,-109.375,0.0
1693677058.161128,-516.11328125,-486.328125,-483.3984375,-141.11328125,0.0
1693677058.1650314,-893.06640625,-883.30078125,-949.70703125,-481.93359375,0.0
1693677058.168935,730.95703125,719.23828125,542.96875,252.44140625,0.0
1693677058.1728387,-774.4140625,-767.08984375,-952.63671875,551.26953125,0.0
1693677058.176742,59.08203125,216.796875,349.609375,-558.59375,0.0
1693677058.1806962,-897.94921875,-843.26171875,-699.70703125,-770.5078125,0.0
1693677058.1845996,500.48828125,479.4921875,439.94140625,-368.65234375,0.0
1693677058.1885033,-761.23046875,-758.7890625,-875.9765625,670.8984375,0.0
1693677058.1924067,681.640625,709.47265625,630.859375,-293.9453125,0.0
1693677058.1963103,-662.109375,-675.78125,-711.9140625,-509.765625,0.0
1693677058.2002137,226.07421875,147.4609375,3.41796875,-599.609375,0.0
1693677058.2041173,-768.5546875,-768.5546875,-914.0625,263.671875,0.0
1693677058.208021,833.49609375,842.28515625,649.4140625,-230.46875,0.0
1693677058.2119243,-697.265625,-705.078125,-673.828125,-35.64453125,0.0
1693677058.215828,-486.81640625,-555.6640625,-721.6796875,-405.2734375,0.0
1693677058.2197313,-971.19140625,991.69921875,811.5234375,437.5,0.0
1693677058.223635,-933.59375,-896.97265625,919.43359375,20.5078125,0.0
1693677058.2275841,-427.734375,-358.88671875,-308.59375,-304.6875,0.0
1693677058.2314878,-946.2890625,-944.3359375,-944.3359375,-583.49609375,0.0
1693677058.2353914,643.06640625,627.44140625,530.76171875,159.1796875,0.0
1693677058.2392948,-759.765625,-755.859375,-928.22265625,699.70703125,0.0
1693677058.2431984,343.26171875,439.94140625,437.01171875,-482.91015625,0.0
1693677058.2471018,-593.75,-551.26953125,-538.0859375,-750.48828125,0.0
1693677058.2510054,540.52734375,525.87890625,389.6484375,-551.26953125,0.0
1693677058.2549088,-807.12890625,-802.734375,-916.50390625,549.31640625,0.0
1693677058.2588124,795.8984375,804.19921875,667.96875,-211.42578125,0.0
1693677058.262716,-623.046875,-642.578125,-703.61328125,-322.265625,0.0
1693677058.2666194,67.3828125,18.06640625,-213.37890625,-564.453125,0.0
1693677058.270523,-775.390625,-789.0625,-968.75,330.078125,0.0
1693677058.274468,854.98046875,898.92578125,691.40625,-177.734375,0.0
1693677058.2783716,-706.54296875,-648.4375,-599.12109375,-5.859375,0.0
1693677058.282275,-739.74609375,-737.79296875,-870.1171875,-373.046875,0.0
1693677058.2861786,898.4375,884.27734375,650.87890625,385.25390625,0.0
1693677058.2900822,-853.02734375,-829.58984375,-966.30859375,285.15625,0.0
1693677058.2939856,-273.4375,-128.90625,88.8671875,-401.3671875,0.0
1693677058.2978892,-984.375,-954.58984375,-830.56640625,-715.33203125,0.0
1693677058.3017926,535.15625,520.5078125,473.6328125,-140.625,0.0
1693677058.3056962,-742.1875,-742.1875,-887.6953125,714.84375,0.0
1693677058.3095999,520.99609375,554.6875,512.20703125,-442.3828125,0.0
1693677058.3135033,-686.03515625,-726.07421875,-774.90234375,-805.6640625,0.0
1693677058.317407,434.08203125,342.28515625,154.78515625,-587.890625,0.0
1693677058.3213477,-776.85546875,-763.671875,-875.0,447.75390625,0.0
1693677058.3252513,807.12890625,807.6171875,657.71484375,-203.125,0.0
1693677058.329155,-666.50390625,-670.8984375,-715.33203125,-65.4296875,0.0
1693677058.3330584,-181.640625,-173.828125,-427.734375,-470.703125,0.0
1693677058.336962,-838.37890625,-855.46875,960.9375,373.53515625,0.0
1693677058.3408654,938.4765625,984.375,774.4140625,-78.61328125,0.0
1693677058.344769,-623.046875,-522.94921875,-528.80859375,-51.7578125,0.0
1693677058.3486726,-809.08203125,-859.375,-943.359375,-454.1015625,0.0
1693677058.352576,803.22265625,759.765625,568.84765625,283.69140625,0.0
1693677058.3564796,-795.41015625,-780.76171875,-925.29296875,508.7890625,0.0
1693677058.360383,63.96484375,87.890625,300.78125,-574.21875,0.0
1693677058.3642867,-897.94921875,-888.671875,-739.2578125,-807.12890625,0.0
1693677058.3682287,497.0703125,496.09375,449.21875,-332.03125,0.0
1693677058.372132,-748.046875,-755.859375,-872.55859375,685.05859375,0.0
1693677058.3760357,628.41796875,670.8984375,605.95703125,-329.58984375,0.0
1693677058.379939,-720.21484375,-673.828125,-715.8203125,-603.02734375,0.0
1693677058.3838427,237.3046875,228.515625,89.84375,-557.6171875,0.0
1693677058.3877463,-765.13671875,-767.578125,-897.94921875,332.51953125,0.0
1693677058.3916497,825.1953125,832.51953125,637.20703125,-188.96484375,0.0
1693677058.3955534,-693.359375,-697.265625,-688.4765625,39.0625,0.0
1693677058.3994567,-365.72265625,-466.796875,-644.04296875,-416.015625,0.0
1693677058.4033604,-929.19921875,-965.33203125,865.72265625,422.36328125,0.0
1693677058.407264,-947.75390625,-933.10546875,905.76171875,-33.69140625,0.0
1693677058.4111674,-435.546875,-417.48046875,-378.90625,-259.27734375,0.0
1693677058.4151056,-882.32421875,-945.80078125,-966.30859375,-559.5703125,0.0
1693677058.419009,714.35546875,632.8125,526.85546875,172.8515625,0.0
1693677058.4229126,-763.671875,-748.53515625,-909.66796875,683.59375,0.0
1693677058.4268162,254.8828125,355.46875,403.3203125,-523.4375,0.0
1693677058.4307196,-829.58984375,-785.64453125,-709.47265625,-795.8984375,0.0
1693677058.4346232,473.6328125,462.890625,393.5546875,-483.88671875,0.0
1693677058.4385266,-758.30078125,-769.53125,-872.55859375,606.93359375,0.0
1693677058.4424303,711.9140625,773.92578125,663.0859375,-228.515625,0.0
1693677058.446334,-685.05859375,-626.953125,-693.359375,-321.2890625,0.0
1693677058.4502373,125.9765625,69.3359375,-100.09765625,-552.734375,0.0
1693677058.454141,-768.06640625,-775.390625,-927.24609375,294.921875,0.0
1693677058.4580443,842.28515625,855.95703125,696.77734375,-182.12890625,0.0
1693677058.4619777,-707.03125,-705.078125,-614.74609375,-4.39453125,0.0
1693677058.4658813,-553.7109375,-724.12109375,-838.8671875,-426.26953125,0.0
1693677058.4697847,987.3046875,900.390625,696.77734375,384.765625,0.0
1693677058.4736884,-894.04296875,-848.14453125,-964.84375,221.6796875,0.0
1693677058.4775918,-315.91796875,-229.4921875,3.90625,-435.05859375,0.0
1693677058.4814954,-1000.0,-976.07421875,-868.65234375,-693.84765625,0.0
1693677058.485399,540.0390625,530.2734375,489.74609375,13.18359375,0.0
1693677058.4893024,-732.421875,-739.2578125,-874.51171875,724.609375,0.0
1693677058.493206,438.96484375,516.11328125,495.60546875,-421.875,0.0
1693677058.4971094,-749.51171875,-714.84375,-757.32421875,-745.1171875,0.0
1693677058.501013,454.58984375,405.76171875,214.84375,-550.78125,0.0
1693677058.5049167,-775.87890625,-771.97265625,-857.421875,513.18359375,0.0
1693677058.5088696,789.0625,805.17578125,688.96484375,-208.49609375,0.0
1693677058.5127733,-538.0859375,-649.90234375,-703.61328125,-223.14453125,0.0
1693677058.516677,53.7109375,-144.04296875,-337.890625,-542.48046875,0.0
1693677058.5205803,-812.98828125,-841.796875,-993.65234375,383.7890625,0.0
1693677058.524484,920.41015625,957.03125,767.08984375,-126.953125,0.0
1693677058.5283873,-612.3046875,-582.03125,-557.12890625,-58.59375,0.0
1693677058.532291,-824.21875,-815.4296875,-930.17578125,-421.38671875,0.0
1693677058.5361946,820.3125,806.640625,601.5625,324.70703125,0.0
1693677058.540098,-812.01171875,-796.38671875,-897.4609375,479.00390625,0.0
1693677058.5440016,-135.25390625,22.4609375,262.20703125,-470.21484375,0.0
1693677058.547905,-953.125,-909.66796875,-766.6015625,-744.62890625,0.0
1693677058.5518086,522.4609375,502.9296875,455.56640625,-159.1796875,0.0
1693677058.5557575,-755.37109375,-749.0234375,-858.88671875,737.79296875,0.0
1693677058.559661,612.3046875,626.46484375,572.75390625,-349.12109375,0.0
1693677058.5635645,-678.22265625,-710.9375,-752.44140625,-631.34765625,0.0
1693677058.567468,336.9140625,254.8828125,117.1875,-600.09765625,0.0
1693677058.5713716,-774.4140625,-765.625,-871.09375,363.28125,0.0
1693677058.5752752,723.6328125,825.1953125,579.58984375,-87.890625,0.0
1693677058.5791786,-721.6796875,-692.3828125,-743.65234375,18.06640625,0.0
1693677058.5830822,-357.421875,-366.69921875,-551.7578125,-469.23828125,0.0
1693677058.5869856,-919.921875,-924.8046875,899.90234375,417.48046875,0.0
1693677058.5908892,-986.81640625,-957.51953125,863.28125,-34.66796875,0.0
1693677058.5947928,-531.73828125,-454.1015625,-450.1953125,-135.25390625,0.0
1693677058.5986962,-882.32421875,-893.06640625,-968.75,-492.1875,0.0
1693677058.6026468,722.65625,702.63671875,550.29296875,256.34765625,0.0
1693677058.6065505,-770.01953125,-761.71875,-878.90625,659.66796875,0.0
1693677058.610454,189.94140625,254.8828125,392.578125,-505.37109375,0.0
1693677058.6143575,-852.05078125,-830.078125,-703.125,-764.6484375,0.0
1693677058.618261,482.421875,476.07421875,429.19921875,-368.1640625,0.0
1693677058.6221645,-759.765625,-763.671875,-855.46875,681.15234375,0.0
1693677058.626068,705.56640625,732.91015625,664.55078125,-261.23046875,0.0
1693677058.6299717,-665.52734375,-658.203125,-702.1484375,-503.41796875,0.0
1693677058.6338751,170.41015625,121.58203125,-43.45703125,-614.74609375,0.0
1693677058.6377788,-770.01953125,-767.08984375,-899.4140625,298.828125,0.0
1693677058.6416824,840.33203125,843.75,723.6328125,-181.640625,0.0
1693677058.6455858,-703.61328125,-707.03125,-644.04296875,9.765625,0.0
1693677058.649532,-558.10546875,-559.08203125,-767.578125,-369.62890625,0.0
1693677058.6534357,995.1171875,985.3515625,792.48046875,448.73046875,0.0
1693677058.6573393,-906.73828125,-890.625,-973.14453125,143.5546875,0.0
1693677058.6612427,-388.671875,-321.77734375,-159.1796875,-267.578125,0.0
1693677058.6651464,-939.453125,-982.421875,-925.78125,-611.81640625,0.0
1693677058.66905,626.46484375,565.4296875,515.13671875,58.10546875,0.0
1693677058.6729534,-749.0234375,-739.2578125,-876.46484375,735.3515625,0.0
1693677058.676857,440.91796875,460.9375,478.02734375,-481.93359375,0.0
1693677058.6807606,-748.046875,-732.91015625,-748.046875,-811.03515625,0.0
1693677058.684664,449.21875,445.3125,263.671875,-540.52734375,0.0
1693677058.6885676,-769.53125,-767.578125,-852.05078125,529.78515625,0.0
1693677058.692471,787.59765625,788.0859375,693.359375,-212.40234375,0.0
1693677058.6964133,-636.23046875,-637.6953125,-695.3125,-179.6875,0.0
1693677058.7003167,14.6484375,17.578125,-261.71875,-515.625,0.0
1693677058.7042203,-780.76171875,-795.8984375,-958.49609375,339.35546875,0.0
1693677058.7081237,871.09375,914.0625,784.66796875,-118.1640625,0.0
1693677058.7120273,-691.40625,-615.234375,-570.80078125,21.97265625,0.0
1693677058.715931,-732.91015625,-789.55078125,-899.90234375,-384.27734375,0.0
1693677058.7198343,883.30078125,842.28515625,650.390625,360.83984375,0.0
1693677058.723738,-832.03125,-814.94140625,-895.01953125,401.85546875,0.0
1693677058.7276416,-129.39453125,-95.703125,176.26953125,-502.9296875,0.0
1693677058.731545,-955.078125,-943.359375,-808.59375,-788.0859375,0.0
1693677058.7354486,519.04296875,516.6015625,467.28515625,-161.1328125,0.0
1693677058.7393522,-739.2578125,-746.09375,-853.02734375,727.05078125,0.0
1693677058.7432897,537.109375,585.44921875,553.22265625,-366.69921875,0.0
1693677058.747193,-742.1875,-697.265625,-763.18359375,-691.40625,0.0
1693677058.7510967,345.703125,335.9375,131.8359375,-552.24609375,0.0
1693677058.7550004,-766.11328125,-768.5546875,-850.09765625,431.15234375,0.0
1693677058.7589037,806.640625,816.40625,704.1015625,-198.73046875,0.0
1693677058.7628074,-670.8984375,-680.6640625,-713.37890625,-39.55078125,0.0
1693677058.766711,-173.828125,-283.69140625,-474.609375,-461.9140625,0.0
1693677058.7706144,-856.4453125,-889.16015625,967.28515625,390.13671875,0.0
1693677058.774518,985.83984375,-995.60546875,891.6015625,-74.21875,0.0
1693677058.7784214,-532.2265625,-511.71875,-466.30859375,-104.98046875,0.0
1693677058.782325,-816.40625,-883.30078125,-961.9140625,-480.46875,0.0
1693677058.7862287,801.7578125,720.703125,568.359375,249.0234375,0.0
1693677058.7901685,-791.9921875,-768.5546875,-833.0078125,556.15234375,0.0
1693677058.7940722,63.96484375,215.8203125,417.48046875,-590.33203125,0.0
1693677058.7979755,-898.4375,-843.26171875,-713.8671875,-816.40625,0.0
1693677058.8018792,501.953125,479.4921875,437.5,-328.125,0.0
1693677058.8057828,-765.625,-759.27734375,-812.5,714.35546875,0.0
1693677058.8096862,699.21875,709.9609375,697.75390625,-267.578125,0.0
1693677058.8135898,-643.06640625,-675.29296875,-696.2890625,-523.4375,0.0
1693677058.8174932,221.6796875,147.94921875,-5.859375,-552.734375,0.0
1693677058.8213968,-768.5546875,-768.5546875,-838.8671875,379.39453125,0.0
1693677058.8253005,834.47265625,841.796875,840.8203125,-122.0703125,0.0
1693677058.8292038,-697.75390625,-705.56640625,-645.01953125,31.73828125,0.0
1693677058.8331075,-496.58203125,-554.19921875,-738.28125,-437.98828125,0.0
1693677058.837042,-974.609375,989.74609375,850.5859375,467.28515625,0.0
1693677058.8409457,-932.12890625,-893.06640625,-911.1328125,251.46484375,0.0
1693677058.8448493,-428.7109375,-345.703125,-189.453125,-257.32421875,0.0
1693677058.8487527,-941.89453125,-946.77734375,-947.265625,-598.6328125,0.0
1693677058.8526564,628.90625,613.28125,518.5546875,202.63671875,0.0
1693677058.85656,-751.46484375,-744.140625,-813.4765625,787.59765625,0.0
1693677058.8604634,441.40625,440.91796875,513.671875,-397.4609375,0.0
1693677058.864367,-748.046875,-748.046875,-734.86328125,-769.04296875,0.0
1693677058.8682706,448.73046875,449.70703125,310.546875,-477.05078125,0.0
1693677058.872174,-768.5546875,-769.04296875,-817.3828125,603.02734375,0.0
1693677058.8760777,784.1796875,788.0859375,756.34765625,-229.98046875,0.0
1693677058.8799813,-629.39453125,-637.20703125,-683.59375,-305.17578125,0.0
1693677058.8839362,32.2265625,19.04296875,-237.3046875,-582.51953125,0.0
1693677058.8878398,-776.3671875,-791.9921875,-905.76171875,376.46484375,0.0
1693677058.8917434,856.93359375,905.76171875,897.4609375,-79.58984375,0.0
1693677058.8956468,-710.44921875,-635.25390625,-564.453125,-2.9296875,0.0
1693677058.8995504,-730.95703125,-750.48828125,-891.6015625,-362.3046875,0.0
1693677058.903454,884.27734375,875.48828125,676.26953125,425.78125,0.0
1693677058.9073575,-833.984375,-827.1484375,-834.47265625,464.35546875,0.0
1693677058.911261,-139.16015625,-129.8828125,167.48046875,-357.421875,0.0
1693677058.9151645,-957.03125,-954.58984375,-843.75,-724.609375,0.0
1693677058.919068,519.04296875,520.99609375,472.65625,12.20703125,0.0
1693677058.9229717,-736.328125,-744.62890625,-808.10546875,802.734375,0.0
1693677058.926875,527.83203125,567.3828125,587.40234375,-333.984375,0.0
1693677058.9308255,-712.40234375,-714.84375,-770.5078125,-762.6953125,0.0
1693677058.9347289,392.08984375,339.35546875,138.671875,-523.4375,0.0
1693677058.9386325,-771.484375,-763.671875,-814.453125,521.97265625,0.0
1693677058.942536,807.12890625,808.10546875,781.25,-220.703125,0.0
1693677058.9464395,-668.9453125,-671.875,-701.171875,-61.03515625,0.0
1693677058.9503431,-176.26953125,-182.6171875,-458.0078125,-481.4453125,0.0
1693677058.9542468,-850.5859375,-857.91015625,-987.3046875,389.6484375,0.0
1693677058.9581504,970.703125,985.3515625,966.30859375,-30.76171875,0.0
1693677058.9620538,-561.5234375,-522.4609375,-481.4453125,-56.15234375,0.0
1693677058.9659574,-813.96484375,-864.74609375,-961.42578125,-433.59375,0.0
1693677058.969861,802.24609375,749.51171875,581.0546875,328.125,0.0
1693677058.9737644,-792.96875,-777.34375,-812.98828125,638.18359375,0.0
1693677058.9777105,63.96484375,125.9765625,386.23046875,-397.4609375,0.0
1693677058.981614,-897.94921875,-875.48828125,-750.0,-755.37109375,0.0
1693677058.9855177,502.44140625,496.09375,451.171875,-167.96875,0.0
1693677058.9894214,-754.39453125,-761.71875,-816.89453125,805.6640625,0.0
1693677058.9933248,629.8828125,682.6171875,673.33984375,-321.77734375,0.0
1693677058.9972284,-620.1171875,-562.5,-607.421875,-734.375,0.0
1693677059.001132,270.99609375,259.765625,104.00390625,-589.84375,0.0
1693677059.0050354,-781.73828125,-780.76171875,-859.86328125,383.7890625,0.0
1693677059.008939,833.0078125,837.890625,779.78515625,-188.4765625,0.0
1693677059.0128427,-693.84765625,-698.2421875,-681.640625,39.55078125,0.0
1693677059.016746,-373.046875,-421.875,-640.625,-407.71484375,0.0
1693677059.0206497,-912.59765625,-948.2421875,887.6953125,408.69140625,0.0
1693677059.0245972,-987.79296875,-942.87109375,924.8046875,-34.1796875,0.0
1693677059.0285006,-527.83203125,-425.78125,-398.92578125,-177.24609375,0.0
1693677059.0324042,-878.90625,-937.01171875,-977.05078125,-531.73828125,0.0
1693677059.0363078,717.7734375,649.90234375,537.59765625,177.734375,0.0
1693677059.0402112,-768.06640625,-750.9765625,-868.65234375,608.88671875,0.0
1693677059.0441148,254.8828125,300.78125,414.55078125,-590.8203125,0.0
1693677059.0480185,-829.58984375,-809.5703125,-708.49609375,-823.2421875,0.0
1693677059.051922,473.6328125,470.21484375,399.90234375,-488.76953125,0.0
1693677059.0558255,-758.30078125,-767.578125,-843.26171875,596.19140625,0.0
1693677059.059729,711.9140625,757.8125,693.84765625,-258.7890625,0.0
1693677059.0636327,-685.05859375,-634.27734375,-696.2890625,-420.41015625,0.0
1693677059.067536,125.48828125,99.609375,-84.9609375,-569.82421875,0.0
1693677059.0714798,-768.5546875,-772.94921875,-902.34375,255.859375,0.0
1693677059.0753832,842.28515625,851.5625,762.6953125,-264.16015625,0.0
1693677059.0792868,-707.03125,-705.56640625,-609.375,-0.9765625,0.0
1693677059.0831904,-553.7109375,-699.21875,-819.3359375,-399.4140625,0.0
1693677059.0870938,987.3046875,917.48046875,742.1875,368.1640625,0.0
1693677059.0909975,-892.08984375,-859.86328125,-893.5546875,10.7421875,0.0
1693677059.094901,-322.265625,-274.90234375,20.01953125,-483.88671875,0.0
1693677059.0988045,-979.4921875,-986.81640625,-885.25390625,-668.9453125,0.0
1693677059.102708,569.3359375,535.15625,494.140625,10.7421875,0.0
1693677059.1066117,-737.3046875,-738.28125,-852.05078125,658.203125,0.0
1693677059.1105154,439.94140625,498.046875,513.18359375,-497.0703125,0.0
1693677059.1144187,-749.0234375,-709.9609375,-750.9765625,-761.23046875,0.0
1693677059.118358,449.21875,431.640625,228.02734375,-535.64453125,0.0
1693677059.1222615,-770.01953125,-772.94921875,-839.35546875,523.4375,0.0
1693677059.1261652,787.59765625,801.7578125,716.30859375,-209.47265625,0.0
1693677059.1300685,-637.6953125,-658.69140625,-695.80078125,-129.39453125,0.0
1693677059.1339722,20.01953125,-116.2109375,-304.19921875,-492.1875,0.0
1693677059.1378758,-796.875,-833.984375,-961.42578125,325.1953125,0.0
1693677059.1417792,912.59765625,954.58984375,845.703125,-203.61328125,0.0
1693677059.1456828,-610.3515625,-574.70703125,-527.34375,-62.98828125,0.0
1693677059.1495864,-820.3125,-813.4765625,-937.98828125,-402.34375,0.0
1693677059.1534898,814.453125,803.22265625,609.375,351.07421875,0.0
1693677059.1573935,-806.15234375,-792.96875,-797.36328125,471.19140625,0.0
1693677059.161297,-66.40625,64.453125,361.81640625,-475.5859375,0.0
1693677059.1652312,-934.08203125,-897.94921875,-768.06640625,-744.140625,0.0
1693677059.1691349,512.6953125,498.046875,449.21875,-162.109375,0.0
1693677059.1730382,-750.0,-750.48828125,-795.41015625,754.39453125,0.0
1693677059.1769419,612.3046875,642.08984375,662.59765625,-307.6171875,0.0
1693677059.1808455,-671.38671875,-705.56640625,-717.28515625,-639.6484375,0.0
1693677059.1847491,330.56640625,234.86328125,87.40234375,-538.0859375,0.0
1693677059.1886525,-772.4609375,-763.671875,-812.98828125,426.26953125,0.0
1693677059.1925561,823.2421875,826.171875,811.03515625,-204.58984375,0.0
1693677059.1964598,-687.5,-693.359375,-685.546875,4.8828125,0.0
1693677059.2003632,-373.53515625,-365.234375,-596.6796875,-444.3359375,0.0
1693677059.2042668,-912.109375,-928.7109375,952.63671875,416.9921875,0.0
1693677059.2081704,-989.74609375,-949.70703125,-970.21484375,1.953125,0.0
1693677059.2121062,-532.2265625,-428.22265625,-398.92578125,-135.25390625,0.0
1693677059.2160099,-878.90625,-910.64453125,-981.4453125,-490.234375,0.0
1693677059.2199132,718.26171875,682.12890625,553.22265625,260.7421875,0.0
1693677059.2238169,-768.06640625,-756.8359375,-794.921875,709.9609375,0.0
1693677059.2277205,254.8828125,271.484375,466.30859375,-466.796875,0.0
1693677059.2316241,-829.58984375,-822.75390625,-711.9140625,-775.87890625,0.0
1693677059.2355275,473.6328125,474.609375,419.921875,-316.40625,0.0
1693677059.2394311,-758.30078125,-767.578125,-809.08203125,704.1015625,0.0
1693677059.2433348,711.9140625,750.48828125,730.46875,-262.6953125,0.0
1693677059.2472382,-685.05859375,-634.765625,-685.05859375,-442.87109375,0.0
1693677059.2511418,125.48828125,117.67578125,-68.359375,-532.2265625,0.0
1693677059.2550454,-768.5546875,-769.53125,-849.609375,388.671875,0.0
1693677059.2590013,842.28515625,846.6796875,873.046875,-164.0625,0.0
1693677059.2629046,-707.03125,-705.56640625,-615.234375,17.08984375,0.0
1693677059.2668083,-553.7109375,-620.1171875,-792.96875,-361.328125,0.0
1693677059.270712,986.328125,958.984375,797.36328125,449.21875,0.0
1693677059.2746155,-888.18359375,-881.34765625,-863.76953125,179.19921875,0.0
1693677059.278519,-333.984375,-323.2421875,-24.4140625,-273.92578125,0.0
1693677059.2824225,-938.4765625,-991.69921875,-910.15625,-597.16796875,0.0
1693677059.2863262,622.55859375,551.7578125,500.48828125,180.6640625,0.0
1693677059.2902296,-746.09375,-740.72265625,-798.33984375,773.92578125,0.0
1693677059.2941332,440.91796875,484.375,548.828125,-456.0546875,0.0
1693677059.2980368,-748.046875,-714.84375,-751.46484375,-791.50390625,0.0
1693677059.3019404,449.21875,440.91796875,244.140625,-461.42578125,0.0
1693677059.3058922,-770.01953125,-769.53125,-804.6875,592.7734375,0.0
1693677059.3097959,787.59765625,794.43359375,775.390625,-230.46875,0.0
1693677059.3136995,-637.6953125,-646.484375,-688.96484375,-157.71484375,0.0
1693677059.3176029,20.01953125,-43.9453125,-289.55078125,-509.765625,0.0
1693677059.3215065,-795.41015625,-809.08203125,-920.41015625,335.44921875,0.0
1693677059.3254101,914.55078125,920.8984375,921.38671875,-113.76953125,0.0
1693677059.3293138,-623.046875,-617.1875,-541.50390625,14.16015625,0.0
1693677059.3332171,-741.2109375,-803.7109375,-917.48046875,-362.79296875,0.0
1693677059.3371208,883.7890625,820.3125,647.94921875,395.5078125,0.0
1693677059.3410244,-830.078125,-804.19921875,-807.6171875,419.43359375,0.0
1693677059.3449278,-129.39453125,-17.08984375,285.64453125,-485.83984375,0.0
1693677059.3488314,-954.58984375,-920.8984375,-801.26953125,-758.30078125,0.0
1693677059.3527787,519.04296875,507.32421875,458.984375,25.87890625,0.0
1693677059.3566823,-739.2578125,-748.046875,-791.50390625,814.453125,0.0
1693677059.360586,537.59765625,615.234375,647.94921875,-384.27734375,0.0
1693677059.3644893,-742.1875,-693.359375,-734.86328125,-730.95703125,0.0
1693677059.368393,345.703125,296.38671875,104.4921875,-420.8984375,0.0
1693677059.3722966,-765.625,-768.06640625,-801.7578125,510.7421875,0.0
1693677059.3762002,807.12890625,822.75390625,802.24609375,-229.00390625,0.0
1693677059.3801036,-670.8984375,-687.98828125,-703.125,-23.92578125,0.0
1693677059.3840072,-173.828125,-344.23828125,-510.7421875,-472.16796875,0.0
1693677059.3879108,-856.93359375,-914.55078125,994.62890625,403.3203125,0.0
1693677059.3918145,982.421875,-968.26171875,-988.28125,-3.90625,0.0
1693677059.3957179,-516.11328125,-474.12109375,-429.6875,-93.26171875,0.0
1693677059.3996606,-893.06640625,-882.32421875,-974.609375,-448.2421875,0.0
1693677059.4035642,730.95703125,717.7734375,565.91796875,341.796875,0.0
1693677059.4074678,-774.4140625,-765.625,-790.52734375,696.2890625,0.0
1693677059.4113715,59.08203125,233.3984375,454.1015625,-547.36328125,0.0
1693677059.4152749,-897.94921875,-836.9140625,-717.28515625,-837.890625,0.0
1693677059.4191785,501.953125,477.05078125,437.01171875,-193.359375,0.0
1693677059.423082,-765.625,-758.30078125,-799.8046875,764.6484375,0.0
1693677059.4269857,699.21875,710.9375,715.33203125,-297.36328125,0.0
1693677059.4308891,-643.06640625,-679.6875,-689.94140625,-557.12890625,0.0
1693677059.4347928,222.65625,138.18359375,15.13671875,-461.42578125,0.0
1693677059.4386964,-771.484375,-768.06640625,-823.2421875,398.92578125,0.0
1693677059.4426,838.37890625,842.28515625,857.91015625,-178.7109375,0.0
1693677059.4465444,-700.1953125,-706.0546875,-636.71875,20.99609375,0.0
1693677059.4504478,-561.5234375,-554.19921875,-741.69921875,-437.5,0.0
1693677059.4543514,-997.55859375,989.2578125,847.65625,455.56640625,0.0
1693677059.458255,-922.36328125,-893.5546875,-882.32421875,143.06640625,0.0
1693677059.4621587,-434.08203125,-340.33203125,-122.0703125,-294.921875,0.0
1693677059.466062,-940.4296875,-958.0078125,-937.01171875,-567.87109375,0.0
1693677059.4699657,628.90625,599.12109375,511.71875,254.8828125,0.0
1693677059.4738693,-751.46484375,-742.1875,-789.0625,737.3046875,0.0
1693677059.477773,440.91796875,440.91796875,531.73828125,-466.796875,0.0
1693677059.4816763,-748.046875,-748.046875,-733.3984375,-781.73828125,0.0
1693677059.48558,449.70703125,449.70703125,310.05859375,-480.46875,0.0
1693677059.4894836,-769.53125,-769.04296875,-802.734375,604.98046875,0.0
1693677059.4934235,787.59765625,787.59765625,774.4140625,-229.4921875,0.0
1693677059.497327,-635.7421875,-637.20703125,-683.10546875,-312.98828125,0.0
1693677059.5012307,12.6953125,19.53125,-238.28125,-574.21875,0.0
1693677059.505134,-776.85546875,-791.9921875,-895.5078125,348.6328125,0.0
1693677059.5090377,858.3984375,906.73828125,924.8046875,-112.79296875,0.0
1693677059.5129414,-711.42578125,-632.8125,-556.640625,-65.91796875,0.0
1693677059.516845,-730.46875,-754.39453125,-890.13671875,-384.27734375,0.0
1693677059.5207486,883.30078125,873.046875,687.98828125,478.515625,0.0
1693677059.524652,-832.51953125,-826.66015625,-810.546875,337.890625,0.0
1693677059.5285556,-129.8828125,-129.8828125,186.5234375,-399.4140625,0.0
1693677059.5324593,-955.078125,-954.58984375,-842.7734375,-706.54296875,0.0
1693677059.536363,519.04296875,521.484375,472.65625,10.25390625,0.0
1693677059.5402985,-739.2578125,-746.09375,-789.0625,776.85546875,0.0
1693677059.544202,537.109375,574.70703125,617.67578125,-378.90625,0.0
1693677059.5481057,-742.1875,-708.0078125,-758.30078125,-767.578125,0.0
1693677059.5520093,345.703125,338.37890625,135.25390625,-523.4375,0.0
1693677059.5559127,-766.11328125,-765.13671875,-799.8046875,520.01953125,0.0
1693677059.5598164,807.12890625,810.546875,801.7578125,-211.42578125,0.0
1693677059.56372,-670.8984375,-674.31640625,-699.21875,-117.67578125,0.0
1693677059.5676236,-174.31640625,-214.35546875,-460.44921875,-518.5546875,0.0
1693677059.571527,-854.98046875,-867.1875,-980.46875,391.11328125,0.0
1693677059.5754306,982.91015625,989.2578125,997.0703125,-64.94140625,0.0
1693677059.5793343,-538.0859375,-522.94921875,-461.42578125,-58.59375,0.0
1693677059.583238,-815.91796875,-873.046875,-962.890625,-431.640625,0.0
1693677059.5871754,801.7578125,740.234375,586.42578125,329.58984375,0.0
1693677059.591079,-792.48046875,-774.90234375,-789.0625,579.58984375,0.0
1693677059.5949824,63.96484375,137.6953125,415.52734375,-492.67578125,0.0
1693677059.598886,-897.94921875,-870.60546875,-743.1640625,-782.71484375,0.0
1693677059.6027896,496.58203125,489.2578125,441.89453125,-157.2265625,0.0
1693677059.6066933,-748.046875,-756.34765625,-794.43359375,791.9921875,0.0
1693677059.6105967,628.41796875,685.546875,694.82421875,-334.9609375,0.0
1693677059.6145003,-720.21484375,-663.57421875,-696.2890625,-728.515625,0.0
1693677059.618404,237.3046875,214.35546875,60.546875,-523.4375,0.0
1693677059.6223075,-765.13671875,-769.04296875,-813.96484375,423.33984375,0.0
1693677059.6262112,825.1953125,835.9375,844.23828125,-201.66015625,0.0
1693677059.6301146,-693.359375,-699.70703125,-658.69140625,-15.13671875,0.0
1693677059.634066,-365.72265625,-511.71875,-674.8046875,-471.6796875,0.0
1693677059.6379697,-923.828125,-981.4453125,914.0625,437.01171875,0.0
1693677059.6418734,-958.0078125,-922.36328125,-922.8515625,14.6484375,0.0
1693677059.6457767,-420.41015625,-390.625,-271.97265625,-177.24609375,0.0
1693677059.6496804,-836.42578125,-842.7734375,-872.0703125,-409.1796875,0.0
1693677059.653584,689.453125,663.0859375,561.03515625,289.0625,0.0
1693677059.6574876,-767.578125,-764.16015625,-796.38671875,717.28515625,0.0
1693677059.6613913,260.25390625,401.85546875,509.27734375,-515.13671875,0.0
1693677059.6652946,-832.51953125,-770.99609375,-715.33203125,-848.14453125,0.0
1693677059.6691983,473.6328125,453.125,395.99609375,-474.609375,0.0
1693677059.673102,-758.30078125,-758.30078125,-829.58984375,573.2421875,0.0
1693677059.6770055,711.9140625,747.0703125,704.58984375,-289.55078125,0.0
1693677059.680958,-685.05859375,-645.5078125,-696.77734375,-445.80078125,0.0
1693677059.6848617,125.9765625,101.07421875,-84.9609375,-582.03125,0.0
1693677059.6887653,-768.06640625,-773.4375,-895.99609375,262.20703125,0.0
1693677059.692669,842.28515625,851.07421875,780.2734375,-269.53125,0.0
1693677059.6965723,-707.03125,-705.56640625,-610.3515625,-27.34375,0.0
1693677059.700476,-553.7109375,-692.3828125,-808.59375,-404.296875,0.0
1693677059.7043796,987.3046875,924.31640625,760.25390625,337.890625,0.0
1693677059.7082832,-892.578125,-866.2109375,-875.48828125,-88.37890625,0.0
1693677059.7121866,-320.3125,-304.19921875,27.83203125,-499.0234375,0.0
1693677059.7160902,-986.328125,-993.1640625,-889.16015625,-659.66796875,0.0
1693677059.7199938,560.05859375,539.0625,495.60546875,11.23046875,0.0
1693677059.7238975,-735.83984375,-739.2578125,-835.9375,602.05078125,0.0
1693677059.7278464,439.453125,493.1640625,522.4609375,-563.96484375,0.0
1693677059.73175,-749.0234375,-711.9140625,-747.0703125,-786.62109375,0.0
1693677059.7356534,449.70703125,435.546875,229.00390625,-578.61328125,0.0
1693677059.739557,-769.53125,-773.92578125,-816.89453125,496.58203125,0.0
1693677059.7434607,787.59765625,802.24609375,756.34765625,-201.171875,0.0
1693677059.7473643,-637.6953125,-658.69140625,-691.89453125,-183.59375,0.0
1693677059.751268,20.01953125,-122.0703125,-309.5703125,-499.51171875,0.0
1693677059.7551713,-795.41015625,-828.61328125,-937.98828125,298.828125,0.0
1693677059.759075,914.0625,938.96484375,899.90234375,-270.5078125,0.0
1693677059.7629786,-618.1640625,-604.4921875,-533.203125,-68.359375,0.0
1693677059.7668822,-770.5078125,-815.4296875,-934.5703125,-391.6015625,0.0
1693677059.7707858,860.83984375,809.5703125,622.0703125,294.43359375,0.0
1693677059.77473,-823.73046875,-799.8046875,-819.82421875,159.66796875,0.0
1693677059.7786336,-131.34765625,-7.32421875,324.70703125,-613.76953125,0.0
1693677059.7825372,-954.58984375,-917.96875,-775.87890625,-776.3671875,0.0
1693677059.7864408,519.04296875,506.8359375,452.63671875,-244.62890625,0.0
1693677059.7903445,-739.2578125,-750.0,-806.640625,625.48828125,0.0
1693677059.7942479,537.109375,624.0234375,633.7890625,-438.96484375,0.0
1693677059.7981515,-742.1875,-703.125,-728.02734375,-668.45703125,0.0
1693677059.8020551,346.19140625,269.53125,103.515625,-622.0703125,0.0
1693677059.8059587,-769.04296875,-767.08984375,-814.94140625,353.02734375,0.0
1693677059.8098624,811.5234375,825.1953125,785.64453125,-181.15234375,0.0
1693677059.8137658,-675.29296875,-691.40625,-696.2890625,-44.921875,0.0
1693677059.8176694,-226.5625,-368.1640625,-541.9921875,-458.49609375,0.0
1693677059.8216093,-871.09375,-923.33984375,973.6328125,381.8359375,0.0
1693677059.825513,989.74609375,-960.9375,-993.1640625,-128.41796875,0.0
1693677059.8294163,-520.5078125,-466.796875,-418.9453125,-134.27734375,0.0
1693677059.83332,-890.625,-881.34765625,-976.07421875,-495.60546875,0.0
1693677059.8372235,729.00390625,716.30859375,564.94140625,211.9140625,0.0
1693677059.8411272,-773.92578125,-764.6484375,-807.12890625,531.73828125,0.0
1693677059.8450308,86.9140625,255.37109375,450.68359375,-549.8046875,0.0
1693677059.8489342,-888.18359375,-829.58984375,-702.63671875,-757.32421875,0.0
1693677059.8528378,497.55859375,475.5859375,436.5234375,-519.04296875,0.0
1693677059.8567414,-764.16015625,-761.71875,-811.03515625,619.140625,0.0
1693677059.860645,700.68359375,727.05078125,714.84375,-253.41796875,0.0
1693677059.8645487,-648.4375,-666.50390625,-688.4765625,-519.04296875,0.0
1693677059.8684902,210.44921875,122.55859375,-32.71484375,-609.375,0.0
1693677059.8723938,-771.484375,-767.578125,-845.703125,286.1328125,0.0
1693677059.8762975,838.8671875,843.26171875,855.95703125,-192.87109375,0.0
1693677059.8802009,-701.171875,-707.03125,-624.0234375,-17.578125,0.0
1693677059.8841045,-560.05859375,-553.22265625,-752.44140625,-423.828125,0.0
1693677059.888008,-1000.0,987.79296875,827.1484375,435.05859375,0.0
1693677059.8919117,-916.50390625,-891.11328125,-878.90625,149.4140625,0.0
1693677059.8958154,-416.9921875,-322.75390625,-42.48046875,-257.32421875,0.0
1693677059.899719,-939.94140625,-977.05078125,-915.0390625,-623.046875,0.0
1693677059.9036224,627.9296875,573.2421875,502.44140625,-21.484375,0.0
1693677059.907526,-750.48828125,-740.72265625,-797.8515625,727.05078125,0.0
1693677059.9114296,441.40625,462.40234375,541.50390625,-393.06640625,0.0
1693677059.9153664,-747.55859375,-731.4453125,-733.88671875,-767.578125,0.0
1693677059.91927,449.21875,444.82421875,281.25,-554.6875,0.0
1693677059.9231737,-770.01953125,-767.08984375,-806.640625,536.62109375,0.0
1693677059.9270773,787.59765625,787.59765625,767.578125,-213.37890625,0.0
1693677059.930981,-636.23046875,-637.6953125,-683.59375,-231.93359375,0.0
1693677059.9348843,15.13671875,20.5078125,-257.8125,-550.78125,0.0
1693677059.938788,-782.71484375,-795.41015625,-909.66796875,375.48828125,0.0
1693677059.9426916,876.46484375,914.0625,918.45703125,-70.80078125,0.0
1693677059.9465952,-683.10546875,-615.234375,-545.8984375,37.59765625,0.0
1693677059.9504988,-733.88671875,-787.59765625,-897.94921875,-415.52734375,0.0
1693677059.9544024,883.30078125,841.796875,669.921875,303.7109375,0.0
1693677059.9583058,-831.54296875,-813.96484375,-814.94140625,541.015625,0.0
1693677059.9622386,-129.39453125,-80.078125,273.92578125,-312.01171875,0.0
1693677059.9661422,-954.58984375,-939.453125,-805.17578125,-756.34765625,0.0
1693677059.9700458,519.04296875,514.6484375,460.9375,-183.10546875,0.0
1693677059.9739492,-739.2578125,-746.09375,-795.8984375,766.6015625,0.0
1693677059.9778528,537.109375,590.8203125,620.1171875,-282.71484375,0.0
1693677059.9817564,-742.1875,-692.3828125,-742.1875,-665.0390625,0.0
1693677059.98566,345.703125,334.9609375,126.953125,-584.9609375,0.0
1693677059.9895637,-765.625,-768.06640625,-802.734375,412.59765625,0.0
1693677059.9934673,807.12890625,816.89453125,792.48046875,-196.77734375,0.0
1693677059.9973707,-670.8984375,-681.15234375,-704.1015625,-35.15625,0.0
1693677060.0012743,-173.828125,-285.64453125,-477.5390625,-470.703125,0.0
1693677060.005178,-856.4453125,-892.08984375,-996.58203125,409.66796875,0.0
1693677060.0091305,981.93359375,-991.2109375,994.62890625,32.71484375,0.0
1693677060.013034,-517.578125,-502.44140625,-435.546875,-35.15625,0.0
1693677060.0169377,-883.7890625,-881.34765625,-969.23828125,-491.2109375,0.0
1693677060.0208414,719.23828125,717.7734375,574.70703125,250.0,0.0
1693677060.024745,-768.5546875,-766.6015625,-786.62109375,664.55078125,0.0
1693677060.0286484,241.69921875,255.37109375,466.796875,-467.7734375,0.0
1693677060.032552,-833.984375,-830.078125,-710.44921875,-758.7890625,0.0
1693677060.0364556,473.14453125,476.07421875,435.546875,-306.15234375,0.0
1693677060.0403593,-751.46484375,-764.16015625,-787.59765625,637.20703125,0.0
1693677060.044263,694.82421875,735.83984375,745.1171875,-353.515625,0.0
1693677060.0481665,-643.06640625,-654.78515625,-666.9921875,-449.70703125,0.0
1693677060.05207,222.16796875,121.09375,10.25390625,-513.671875,0.0
1693677060.0560179,-771.484375,-767.08984375,-816.89453125,314.94140625,0.0
1693677060.0599215,838.8671875,843.26171875,879.39453125,-199.21875,0.0
1693677060.0638251,-707.51953125,-707.03125,-631.8359375,122.0703125,0.0
1693677060.0677285,-547.8515625,-553.22265625,-726.07421875,-355.95703125,0.0
1693677060.0716321,986.328125,987.79296875,854.00390625,422.36328125,0.0
1693677060.0755358,-990.72265625,-890.625,-855.95703125,290.0390625,0.0
1693677060.0794394,-377.44140625,-324.21875,-29.78515625,-43.45703125,0.0
1693677060.083343,-922.36328125,-971.19140625,-918.9453125,-516.6015625,0.0
1693677060.0872467,615.72265625,580.56640625,500.48828125,242.67578125,0.0
1693677060.09115,-744.140625,-743.1640625,-770.01953125,854.4921875,0.0
1693677060.0950537,440.91796875,469.7265625,552.24609375,13.671875,0.0
1693677060.0989573,-748.046875,-726.07421875,-721.19140625,-396.97265625,0.0
1693677060.102907,449.21875,443.359375,317.3828125,-353.02734375,0.0
1693677060.1068106,-770.01953125,-767.08984375,-788.0859375,665.52734375,0.0
1693677060.1107142,787.109375,787.59765625,783.203125,-259.27734375,0.0
1693677060.1146178,-637.20703125,-637.6953125,-675.78125,235.3515625,0.0
1693677060.1185212,19.04296875,20.01953125,-140.13671875,-102.5390625,0.0
1693677060.1224248,-792.96875,-795.41015625,-858.3984375,427.734375,0.0
1693677060.1263285,906.73828125,914.0625,927.734375,299.31640625,0.0
1693677060.130232,-635.7421875,-616.2109375,-533.69140625,299.8046875,0.0
1693677060.1341357,-739.74609375,-783.203125,-896.97265625,391.11328125,0.0
1693677060.1380394,883.7890625,843.75,686.5234375,655.2734375,0.0
1693677060.141943,-830.56640625,-813.4765625,-800.29296875,787.59765625,0.0
1693677060.1458464,-129.39453125,-65.4296875,223.14453125,389.16015625,0.0
1693677060.1497917,-954.58984375,-935.05859375,-830.078125,-123.53515625,0.0
1693677060.1536953,519.04296875,512.6953125,467.28515625,500.0,0.0
1693677060.1575987,-739.2578125,-746.58203125,-781.73828125,787.109375,0.0
1693677060.1615024,537.109375,597.65625,642.578125,-20.99609375,0.0
1693677060.165406,-742.1875,-685.546875,-739.74609375,-12.6953125,0.0
1693677060.1693096,345.703125,333.49609375,136.23046875,-400.390625,0.0
1693677060.1732132,-766.11328125,-767.578125,-793.45703125,622.55859375,0.0
1693677060.1771169,806.640625,816.40625,806.15234375,-125.9765625,0.0
1693677060.1810205,-670.8984375,-681.15234375,-699.70703125,302.734375,0.0
1693677060.184924,-173.828125,-280.76171875,-464.84375,140.13671875,0.0
1693677060.1888275,-856.4453125,-892.578125,-981.93359375,420.41015625,0.0
1693677060.1927311,985.83984375,-987.3046875,-983.3984375,549.31640625,0.0
1693677060.1966722,-532.2265625,-491.69921875,-437.01171875,311.03515625,0.0
1693677060.2005756,-816.40625,-883.7890625,-964.84375,254.39453125,0.0
1693677060.2044792,801.26953125,719.23828125,584.47265625,677.734375,0.0
1693677060.2083828,-792.48046875,-767.578125,-783.203125,764.16015625,0.0
1693677060.2122865,63.96484375,217.7734375,443.84765625,300.78125,0.0
1693677060.21619,-897.94921875,-842.7734375,-729.00390625,-298.33984375,0.0
1693677060.2200937,500.48828125,479.00390625,437.01171875,15.625,0.0
1693677060.2239974,-761.23046875,-756.8359375,-789.0625,720.703125,0.0
1693677060.2279007,681.640625,705.078125,714.35546875,-129.39453125,0.0
1693677060.2318044,-661.62109375,-666.015625,-684.5703125,49.8046875,0.0
1693677060.235708,225.09765625,170.41015625,54.6875,-348.6328125,0.0
1693677060.2396116,-762.20703125,-769.04296875,-812.98828125,484.375,0.0
1693677060.2435484,825.68359375,840.8203125,856.93359375,0.9765625,0.0
1693677060.247452,-693.359375,-704.58984375,-649.4140625,188.4765625,0.0
1693677060.2513556,-365.72265625,-554.6875,-693.359375,-233.88671875,0.0
1693677060.2552593,-929.19921875,990.72265625,890.625,410.64453125,0.0
1693677060.259163,-953.125,-894.53125,-891.6015625,546.875,0.0
1693677060.2630665,-418.9453125,-354.4921875,-196.2890625,154.296875,0.0
1693677060.26697,-945.80078125,-938.4765625,-958.0078125,-509.27734375,0.0
1693677060.2708735,630.37109375,624.51171875,519.53125,273.92578125,0.0
1693677060.2747772,-750.9765625,-747.0703125,-774.90234375,812.5,0.0
1693677060.2786808,414.0625,441.40625,524.4140625,-64.453125,0.0
1693677060.2825844,-759.765625,-747.55859375,-715.8203125,-532.2265625,0.0
1693677060.286488,451.171875,449.70703125,362.3046875,-323.73046875,0.0
1693677060.2904263,-764.16015625,-769.04296875,-798.828125,688.4765625,0.0
1693677060.29433,771.484375,788.0859375,775.390625,-250.0,0.0
1693677060.2982335,-602.05078125,-637.20703125,-672.8515625,-51.7578125,0.0
1693677060.3021371,112.3046875,18.5546875,-165.0390625,-448.73046875,0.0
1693677060.3060408,-774.90234375,-790.52734375,-872.0703125,314.94140625,0.0
1693677060.3099444,851.5625,902.83203125,919.921875,2.44140625,0.0
1693677060.313848,-705.56640625,-642.578125,-562.5,151.85546875,0.0
1693677060.3177514,-734.375,-738.76953125,-870.1171875,-303.22265625,0.0
1693677060.321655,889.6484375,884.27734375,714.35546875,459.47265625,0.0
1693677060.3255587,-841.30859375,-829.58984375,-811.03515625,416.015625,0.0
1693677060.3294623,-189.94140625,-128.90625,163.0859375,-111.81640625,0.0
1693677060.333366,-967.28515625,-954.58984375,-853.02734375,-539.0625,0.0
1693677060.3372998,524.4140625,520.5078125,474.12109375,188.4765625,0.0
1693677060.3412035,-736.328125,-742.67578125,-777.34375,803.22265625,0.0
1693677060.345107,519.53125,558.59375,609.375,-327.63671875,0.0
1693677060.3490107,-686.03515625,-723.14453125,-753.90625,-506.8359375,0.0
1693677060.3529143,433.59375,341.30859375,177.24609375,-488.28125,0.0
1693677060.356818,-776.85546875,-763.671875,-794.43359375,506.8359375,0.0
1693677060.3607216,807.12890625,807.6171875,802.24609375,-219.23828125,0.0
1693677060.3646252,-668.45703125,-670.8984375,-694.3359375,-6.8359375,0.0
1693677060.3685288,-173.828125,-173.828125,-402.83203125,-414.0625,0.0
1693677060.3724322,-856.4453125,-855.95703125,-958.0078125,341.30859375,0.0
1693677060.3763359,985.83984375,984.375,995.1171875,-26.85546875,0.0
1693677060.3802395,-532.2265625,-523.4375,-462.890625,6.8359375,0.0
1693677060.3841927,-816.40625,-855.95703125,-956.54296875,-386.71875,0.0
1693677060.3880963,801.7578125,757.8125,599.609375,416.015625,0.0
1693677060.392,-791.9921875,-779.78515625,-785.15625,490.72265625,0.0
1693677060.3959036,63.96484375,127.9296875,397.94921875,-399.90234375,0.0
1693677060.3998072,-897.94921875,-875.0,-754.8828125,-642.578125,0.0
1693677060.4037108,497.0703125,491.2109375,443.359375,-153.3203125,0.0
1693677060.4076145,-748.046875,-756.34765625,-785.64453125,724.609375,0.0
1693677060.4115179,628.41796875,685.05859375,701.66015625,-299.8046875,0.0
1693677060.4154215,-720.21484375,-657.2265625,-696.77734375,-418.45703125,0.0
1693677060.419325,237.3046875,225.09765625,72.75390625,-476.07421875,0.0
1693677060.4232287,-765.13671875,-767.08984375,-808.10546875,399.90234375,0.0
1693677060.4271324,825.1953125,833.0078125,842.7734375,-207.03125,0.0
1693677060.4310813,-693.359375,-697.75390625,-666.9921875,84.47265625,0.0
1693677060.434985,-365.72265625,-470.21484375,-646.484375,-346.6796875,0.0
1693677060.4388885,-929.19921875,-971.19140625,925.29296875,378.90625,0.0
1693677060.442792,-948.2421875,-924.31640625,-917.96875,-46.38671875,0.0
1693677060.4466956,-435.546875,-394.53125,-289.0625,-138.671875,0.0
1693677060.4505992,-882.32421875,-943.359375,-971.6796875,-490.72265625,0.0
1693677060.4545028,714.35546875,629.39453125,534.66796875,263.671875,0.0
1693677060.4584064,-763.671875,-748.53515625,-777.83203125,581.0546875,0.0
1693677060.46231,254.8828125,402.34375,498.046875,-484.86328125,0.0
1693677060.4662137,-830.56640625,-765.13671875,-712.890625,-661.1328125,0.0
1693677060.4701173,479.4921875,455.56640625,398.4375,-315.91796875,0.0
1693677060.474021,-775.87890625,-768.5546875,-798.33984375,677.24609375,0.0
1693677060.4779658,772.4609375,782.2265625,768.06640625,-279.78515625,0.0
1693677060.4818695,-611.81640625,-626.46484375,-673.828125,-292.48046875,0.0
1693677060.485773,118.65234375,64.94140625,-99.12109375,-503.41796875,0.0
1693677060.4896767,-768.5546875,-782.71484375,-855.46875,274.4140625,0.0
1693677060.4935803,744.140625,772.94921875,806.640625,-147.94921875,0.0
1693677060.497484,-741.2109375,-716.30859375,-618.65234375,102.05078125,0.0
1693677060.5013876,-537.59765625,-719.7265625,-815.91796875,-296.875,0.0
1693677060.5052912,979.4921875,880.37109375,750.0,424.31640625,0.0
1693677060.5091949,-890.13671875,-833.984375,-824.70703125,42.96875,0.0
1693677060.5130982,-319.82421875,-168.9453125,92.7734375,-300.78125,0.0
1693677060.5170019,-988.28125,-963.37890625,-877.44140625,-578.61328125,0.0
1693677060.5209055,557.6171875,521.484375,485.83984375,163.0859375,0.0
1693677060.524852,-735.3515625,-728.515625,-791.9921875,818.359375,0.0
1693677060.5287557,439.453125,483.88671875,554.6875,-389.6484375,0.0
1693677060.5326593,-761.71875,-726.5625,-761.71875,-726.5625,0.0
1693677060.536563,461.42578125,453.61328125,250.48828125,-587.40234375,0.0
1693677060.5404665,-761.23046875,-764.16015625,-812.01171875,489.2578125,0.0
1693677060.5443702,497.55859375,508.7890625,466.30859375,85.44921875,0.0
1693677060.5482738,-762.20703125,-777.83203125,-814.453125,-41.015625,0.0
1693677060.5521772,71.2890625,-36.1328125,-246.58203125,-569.3359375,0.0
1693677060.5560808,-818.84765625,-843.75,-958.0078125,380.37109375,0.0
1693677060.5599844,922.36328125,939.453125,912.109375,-87.890625,0.0
1693677060.563888,-623.046875,-607.91015625,-536.62109375,36.1328125,0.0
1693677060.5677917,-741.2109375,-815.4296875,-924.31640625,-419.921875,0.0
1693677060.5717342,883.30078125,809.08203125,629.39453125,310.546875,0.0
1693677060.5756376,-830.078125,-799.8046875,-823.2421875,500.9765625,0.0
1693677060.5795412,-129.39453125,-0.48828125,318.359375,-438.96484375,0.0
1693677060.5834448,-954.58984375,-916.015625,-782.2265625,-799.31640625,0.0
1693677060.5873485,520.01953125,505.37109375,453.61328125,-277.34375,0.0
1693677060.591252,-743.65234375,-748.046875,-806.640625,713.37890625,0.0
1693677060.5951557,558.10546875,620.60546875,640.625,-359.375,0.0
1693677060.5990593,-722.65625,-695.3125,-723.6328125,-807.6171875,0.0
1693677060.602963,340.8203125,284.66796875,102.5390625,-645.99609375,0.0
1693677060.6068666,-764.16015625,-768.06640625,-810.05859375,367.67578125,0.0
1693677060.6107702,807.12890625,824.70703125,791.015625,-178.7109375,0.0
1693677060.6146739,-670.8984375,-690.91796875,-701.66015625,-107.421875,0.0
1693677060.6186118,-173.828125,-367.67578125,-520.5078125,-500.0,0.0
1693677060.6225154,-856.4453125,-923.828125,982.91015625,383.30078125,0.0
1693677060.626419,981.93359375,-958.984375,-993.1640625,-169.43359375,0.0
1693677060.6303227,-516.6015625,-462.40234375,-416.50390625,-133.30078125,0.0
1693677060.6342263,-889.16015625,-881.34765625,-975.09765625,-499.0234375,0.0
1693677060.63813,726.07421875,715.8203125,563.4765625,139.16015625,0.0
1693677060.6420336,-772.4609375,-764.6484375,-806.15234375,343.75,0.0
1693677060.6459372,134.27734375,255.37109375,453.61328125,-682.12890625,0.0
1693677060.6498408,-871.58203125,-830.078125,-705.078125,-835.9375,0.0
1693677060.6537445,489.74609375,475.5859375,435.546875,-538.0859375,0.0
1693677060.657648,-759.765625,-763.18359375,-810.05859375,533.69140625,0.0
1693677060.6615517,697.265625,730.95703125,725.09765625,-380.859375,0.0
1693677060.6654856,-643.06640625,-661.1328125,-680.17578125,-720.703125,0.0
1693677060.669389,222.65625,122.0703125,-27.83203125,-663.0859375,0.0
1693677060.6732926,-771.484375,-767.08984375,-838.8671875,284.1796875,0.0
1693677060.6771963,838.37890625,843.26171875,863.76953125,-229.98046875,0.0
1693677060.6811,-701.66015625,-707.03125,-626.46484375,-113.28125,0.0
1693677060.6850035,-557.12890625,-553.22265625,-748.046875,-522.94921875,0.0
1693677060.6889071,993.1640625,987.79296875,828.61328125,330.078125,0.0
1693677060.6928108,-902.83203125,-890.625,-872.55859375,-147.94921875,0.0
1693677060.6967144,-376.953125,-325.1953125,-20.99609375,-300.29296875,0.0
1693677060.700618,-938.96484375,-968.26171875,-912.109375,-598.14453125,0.0
1693677060.7045217,625.48828125,583.984375,499.51171875,-108.3984375,0.0
1693677060.7084253,-748.53515625,-743.65234375,-790.52734375,486.81640625,0.0
1693677060.7123601,440.91796875,467.28515625,542.48046875,-645.99609375,0.0
1693677060.7162638,-748.046875,-728.02734375,-729.00390625,-862.3046875,0.0
1693677060.7201674,449.70703125,443.84765625,292.96875,-641.11328125,0.0
1693677060.724071,-770.01953125,-767.08984375,-804.19921875,472.16796875,0.0
1693677060.7279747,787.109375,787.59765625,772.4609375,-218.26171875,0.0
1693677060.7318783,-636.71875,-637.6953125,-683.10546875,-529.78515625,0.0
1693677060.735782,16.11328125,20.01953125,-252.9296875,-610.3515625,0.0
1693677060.7396855,-786.1328125,-795.41015625,-907.2265625,293.9453125,0.0
1693677060.7435892,887.20703125,914.55078125,922.36328125,-288.57421875,0.0
1693677060.7474928,-666.50390625,-617.1875,-543.45703125,-45.41015625,0.0
1693677060.7513964,-735.83984375,-777.34375,-895.5078125,-490.72265625,0.0
1693677060.7553,883.7890625,849.609375,673.828125,274.90234375,0.0
1693677060.759255,-831.0546875,-815.91796875,-814.94140625,45.41015625,0.0
1693677060.7631586,-129.39453125,-76.66015625,258.7890625,-583.984375,0.0
1693677060.7670622,-955.078125,-938.4765625,-811.5234375,-734.86328125,0.0
1693677060.7709658,519.04296875,514.16015625,462.890625,-330.078125,0.0
1693677060.7748694,-739.2578125,-746.09375,-793.9453125,381.34765625,0.0
1693677060.778773,537.109375,591.30859375,623.046875,-595.21484375,0.0
1693677060.7826765,-742.1875,-691.40625,-740.72265625,-836.9140625,0.0
1693677060.78658,345.703125,334.47265625,132.8125,-674.8046875,0.0
1693677060.7904837,-766.11328125,-766.6015625,-800.78125,379.8828125,0.0
1693677060.7943873,806.640625,814.453125,794.43359375,-183.59375,0.0
1693677060.798291,-670.8984375,-678.7109375,-702.63671875,-128.90625,0.0
1693677060.8021946,-173.828125,-257.8125,-470.21484375,-501.953125,0.0
1693677060.8061447,-855.95703125,-883.7890625,-993.65234375,248.53515625,0.0
1693677060.8100483,985.83984375,-994.62890625,996.58203125,-256.34765625,0.0
1693677060.813952,-532.71484375,-500.48828125,-436.5234375,-82.03125,0.0
1693677060.8178556,-816.40625,-881.34765625,-963.37890625,-487.79296875,0.0
1693677060.8217592,801.7578125,725.5859375,584.47265625,171.875,0.0
1693677060.8256629,-791.9921875,-769.53125,-797.8515625,288.57421875,0.0
1693677060.8295665,63.96484375,191.89453125,441.40625,-698.2421875,0.0
1693677060.83347,-897.94921875,-851.5625,-719.7265625,-822.75390625,0.0
1693677060.8373737,496.58203125,483.3984375,437.5,-515.625,0.0
1693677060.8412774,-748.046875,-760.7421875,-805.17578125,543.45703125,0.0
1693677060.845181,627.9296875,709.47265625,702.1484375,-392.08984375,0.0
1693677060.8490846,-720.21484375,-673.828125,-687.5,-700.1953125,0.0
1693677060.8530304,238.76953125,150.87890625,24.4140625,-658.69140625,0.0
1693677060.856934,-775.390625,-768.5546875,-818.359375,280.76171875,0.0
1693677060.8608377,837.890625,841.796875,872.0703125,-238.76953125,0.0
1693677060.8647413,-701.171875,-706.0546875,-635.25390625,-40.0390625,0.0
1693677060.868645,-557.6171875,-553.22265625,-719.23828125,-393.06640625,0.0
1693677060.8725486,994.62890625,987.3046875,857.421875,99.12109375,0.0
1693677060.8764522,-904.78515625,-889.16015625,-858.3984375,-284.66796875,0.0
1693677060.8803558,-383.30078125,-328.61328125,-35.15625,-278.80859375,0.0
1693677060.8842592,-939.453125,-956.54296875,-921.38671875,-578.61328125,0.0
1693677060.8881629,625.9765625,599.12109375,501.953125,187.5,0.0
1693677060.8920665,-749.0234375,-743.65234375,-766.11328125,442.87109375,0.0
1693677060.89597,441.40625,451.171875,546.38671875,-641.6015625,0.0
1693677060.8999128,-748.046875,-740.234375,-717.28515625,-772.94921875,0.0
1693677060.9038162,449.21875,447.75390625,332.51953125,-493.65234375,0.0
1693677060.9077199,-769.53125,-768.06640625,-793.9453125,585.9375,0.0
