time,TP9,AF7,AF8,TP10,Right AUX
1694471961.3313913,236.81640625,328.61328125,-459.47265625,-1000.0,0.0
1694471961.3352954,-1000.0,-1000.0,-601.5625,-566.89453125,0.0
1694471961.3391995,-361.328125,-874.51171875,-560.546875,-936.5234375,0.0
1694471961.3431036,-842.7734375,608.88671875,-464.35546875,392.578125,0.0
1694471961.3470078,499.0234375,654.78515625,-496.58203125,-1000.0,0.0
1694471961.3509119,-1000.0,-833.984375,-566.40625,-1000.0,0.0
1694471961.3548162,-763.671875,-1000.0,-585.44921875,389.16015625,0.0
1694471961.3587203,823.2421875,103.515625,-409.1796875,875.48828125,0.0
1694471961.3626244,988.76953125,995.1171875,-375.0,-659.1796875,0.0
1694471961.3665285,-487.79296875,-324.70703125,-583.0078125,-1000.0,0.0
1694471961.3704326,-1000.0,-1000.0,-595.703125,-144.53125,0.0
1694471961.3743367,84.9609375,-263.671875,-508.30078125,-889.16015625,0.0
1694471961.3782606,-780.76171875,-893.5546875,-474.609375,-117.1875,0.0
1694471961.382165,82.03125,92.7734375,-559.5703125,-1000.0,0.0
1694471961.386069,-1000.0,-1000.0,-582.03125,-257.32421875,0.0
1694471961.3899732,-247.55859375,-614.74609375,-496.58203125,-842.7734375,0.0
1694471961.3938773,-808.10546875,905.2734375,-463.37890625,239.2578125,0.0
1694471961.3977814,241.2109375,386.23046875,-504.8828125,-1000.0,0.0
1694471961.4016855,-1000.0,-1000.0,-546.38671875,-650.390625,0.0
1694471961.4055896,-424.31640625,-941.40625,-488.76953125,995.1171875,0.0
1694471961.4094937,-877.9296875,483.3984375,-481.4453125,430.6640625,0.0
1694471961.4133978,597.65625,759.27734375,-507.32421875,-1000.0,0.0
1694471961.4173021,-1000.0,-708.984375,-570.80078125,-1000.0,0.0
1694471961.4212062,-861.81640625,-1000.0,-577.63671875,253.90625,0.0
1694471961.4251275,666.015625,19.53125,-500.48828125,979.4921875,0.0
1694471961.4290316,-874.0234375,-913.0859375,-473.6328125,-515.625,0.0
1694471961.432936,-238.28125,-132.32421875,-541.50390625,-1000.0,0.0
1694471961.43684,-1000.0,-1000.0,-602.5390625,-189.94140625,0.0
1694471961.4407442,-55.17578125,-305.6640625,-511.23046875,-833.0078125,0.0
1694471961.4446483,-780.2734375,-861.81640625,-437.5,167.96875,0.0
1694471961.4485524,213.8671875,208.49609375,-462.890625,-1000.0,0.0
1694471961.4524565,-1000.0,-1000.0,-534.1796875,-308.59375,0.0
1694471961.4563606,-267.08984375,-590.8203125,-543.9453125,-830.078125,0.0
1694471961.4602647,-798.33984375,938.96484375,-466.30859375,279.296875,0.0
1694471961.4641688,311.03515625,524.4140625,-501.46484375,-1000.0,0.0
1694471961.468073,-1000.0,-995.1171875,-583.49609375,-703.125,0.0
1694471961.4719965,-439.453125,-950.68359375,-568.359375,910.15625,0.0
1694471961.4759007,-921.38671875,471.19140625,-460.44921875,734.86328125,0.0
1694471961.4798048,785.64453125,937.01171875,-440.91796875,-819.82421875,0.0
1694471961.4837089,-757.32421875,-470.703125,-567.87109375,-1000.0,0.0
1694471961.487613,-1000.0,-1000.0,-595.703125,161.1328125,0.0
1694471961.491517,421.875,-56.640625,-451.171875,-798.33984375,0.0
1694471961.4954212,-798.828125,-843.75,-376.953125,-21.97265625,0.0
1694471961.4993255,-84.9609375,33.203125,-501.46484375,-1000.0,0.0
1694471961.5032296,-1000.0,-1000.0,-583.0078125,-222.16796875,0.0
1694471961.5071337,-48.828125,-318.359375,-473.14453125,-810.05859375,0.0
1694471961.5110378,-768.06640625,-849.609375,-429.19921875,223.6328125,0.0
1694471961.514942,210.44921875,284.66796875,-544.921875,-1000.0,0.0
1694471961.5188727,-1000.0,-1000.0,-596.6796875,-375.9765625,0.0
1694471961.5227768,-272.94921875,-705.56640625,-510.25390625,-849.609375,0.0
1694471961.526681,-799.31640625,830.56640625,-452.1484375,345.21484375,0.0
1694471961.530585,379.39453125,570.3125,-514.16015625,-1000.0,0.0
1694471961.5344892,-1000.0,-923.33984375,-583.984375,-801.7578125,0.0
1694471961.5383933,-548.828125,-1000.0,-497.0703125,825.1953125,0.0
1694471961.5422974,960.44921875,253.90625,-422.8515625,773.4375,0.0
1694471961.5462015,863.76953125,944.82421875,-494.140625,-769.53125,0.0
1694471961.5501058,-672.8515625,-438.4765625,-574.70703125,-1000.0,0.0
1694471961.55401,-1000.0,-1000.0,-572.265625,44.43359375,0.0
1694471961.557914,272.94921875,-150.87890625,-503.90625,-844.7265625,0.0
1694471961.5618181,-793.9453125,-882.8125,-474.12109375,-128.41796875,0.0
1694471961.5657496,-48.33984375,19.04296875,-519.04296875,-1000.0,0.0
1694471961.5696537,-1000.0,-1000.0,-573.2421875,-224.12109375,0.0
1694471961.5735579,-212.890625,-479.98046875,-538.0859375,-824.70703125,0.0
1694471961.577462,-806.640625,-972.65625,-477.05078125,230.46875,0.0
1694471961.581366,236.328125,285.15625,-500.0,-1000.0,0.0
1694471961.5852702,-1000.0,-1000.0,-565.4296875,-481.4453125,0.0
1694471961.5891743,-337.890625,-869.140625,-543.9453125,-893.06640625,0.0
1694471961.5930784,-833.0078125,604.98046875,-468.26171875,396.484375,0.0
1694471961.5969827,463.37890625,605.95703125,-443.359375,-1000.0,0.0
1694471961.6008868,-1000.0,-884.765625,-524.4140625,-1000.0,0.0
1694471961.604791,-736.328125,-1000.0,-594.7265625,498.046875,0.0
1694471961.608695,845.21484375,129.8828125,-504.8828125,884.765625,0.0
1694471961.6126237,983.3984375,987.3046875,-478.02734375,-658.203125,0.0
1694471961.6165278,-505.37109375,-345.21484375,-577.63671875,-1000.0,0.0
1694471961.620432,-1000.0,-1000.0,-600.5859375,-78.125,0.0
1694471961.624336,153.3203125,-216.796875,-503.90625,-820.80078125,0.0
1694471961.62824,-773.92578125,-867.67578125,-462.890625,59.08203125,0.0
1694471961.6321442,75.68359375,108.3984375,-527.34375,-1000.0,0.0
1694471961.6360483,-1000.0,-1000.0,-578.125,-243.1640625,0.0
1694471961.6399527,-248.046875,-541.015625,-542.96875,-813.96484375,0.0
1694471961.6438568,-804.19921875,987.79296875,-388.18359375,283.203125,0.0
1694471961.6477609,236.81640625,397.94921875,-427.734375,-1000.0,0.0
1694471961.651665,-1000.0,-1000.0,-618.1640625,-545.41015625,0.0
1694471961.655569,-337.40234375,-875.9765625,-551.7578125,-939.453125,0.0
1694471961.659499,-845.703125,587.40234375,-462.40234375,626.953125,0.0
1694471961.663403,599.609375,795.8984375,-498.046875,-941.89453125,0.0
1694471961.6673071,-1000.0,-684.08203125,-594.7265625,-1000.0,0.0
1694471961.6712115,-757.32421875,-1000.0,-563.96484375,413.57421875,0.0
1694471961.6751156,794.43359375,91.796875,-454.58984375,-826.66015625,0.0
1694471961.6790197,-883.7890625,-894.04296875,-444.82421875,-198.2421875,0.0
1694471961.6829238,-222.65625,-107.91015625,-536.1328125,-1000.0,0.0
1694471961.686828,-1000.0,-1000.0,-536.1328125,33.69140625,0.0
1694471961.690732,8.30078125,-259.765625,-440.91796875,-787.59765625,0.0
1694471961.694636,-768.5546875,-836.9140625,-469.7265625,204.58984375,0.0
1694471961.6985402,206.54296875,224.12109375,-532.2265625,-1000.0,0.0
1694471961.7024446,-1000.0,-1000.0,-583.0078125,-267.578125,0.0
1694471961.706368,-268.06640625,-535.64453125,-540.0390625,-805.6640625,0.0
1694471961.710272,-797.36328125,-998.53515625,-472.65625,377.9296875,0.0
1694471961.7141762,311.03515625,505.37109375,-507.8125,-1000.0,0.0
1694471961.7180803,-1000.0,-1000.0,-585.44921875,-586.9140625,0.0
1694471961.7219844,-420.41015625,-936.03515625,-556.640625,990.234375,0.0
1694471961.7258885,-894.53125,504.8828125,-447.265625,800.78125,0.0
1694471961.7297928,719.23828125,888.671875,-457.51953125,-727.05078125,0.0
1694471961.733697,-839.84375,-535.64453125,-506.34765625,-1000.0,0.0
1694471961.737601,-1000.0,-1000.0,-536.62109375,369.140625,0.0
1694471961.7415051,460.44921875,-44.43359375,-517.578125,-822.75390625,0.0
1694471961.7454093,-817.3828125,-875.48828125,-469.23828125,-111.81640625,0.0
1694471961.7493134,-142.08984375,-37.109375,-536.62109375,-1000.0,0.0
1694471961.7532377,-1000.0,-1000.0,-590.8203125,-201.171875,0.0
1694471961.7571418,-60.05859375,-341.30859375,-530.76171875,-810.546875,0.0
1694471961.761046,-774.90234375,-876.46484375,-443.359375,220.703125,0.0
1694471961.7649503,213.37890625,223.14453125,-497.55859375,-1000.0,0.0
1694471961.7688544,-1000.0,-1000.0,-597.65625,-359.86328125,0.0
1694471961.7727585,-269.04296875,-719.7265625,-533.203125,-841.796875,0.0
1694471961.7766626,-804.6875,800.29296875,-426.26953125,340.8203125,0.0
1694471961.7805667,357.91015625,522.94921875,-444.3359375,-1000.0,0.0
1694471961.7844708,-1000.0,-965.8203125,-603.515625,-841.30859375,0.0
1694471961.788375,-618.1640625,-1000.0,-588.8671875,747.0703125,0.0
1694471961.792279,984.375,254.8828125,-453.61328125,828.61328125,0.0
1694471961.7961833,835.44921875,900.87890625,-456.0546875,-719.7265625,0.0
1694471961.8001084,-720.703125,-498.046875,-593.26171875,-1000.0,0.0
1694471961.8040125,-1000.0,-1000.0,-597.65625,64.453125,0.0
1694471961.8079169,316.89453125,-147.4609375,-475.09765625,-844.7265625,0.0
1694471961.811821,-797.36328125,-893.5546875,-464.35546875,-134.27734375,0.0
1694471961.815725,-57.12890625,-1.953125,-557.12890625,-1000.0,0.0
1694471961.8196292,-1000.0,-1000.0,-589.35546875,-225.09765625,0.0
1694471961.8235333,-192.3828125,-458.984375,-443.359375,-823.2421875,0.0
1694471961.8274374,-799.8046875,-957.51953125,-376.46484375,236.328125,0.0
1694471961.8313415,230.95703125,292.48046875,-535.15625,-1000.0,0.0
1694471961.8352456,-1000.0,-1000.0,-601.5625,-452.63671875,0.0
1694471961.83915,-299.8046875,-817.87109375,-545.41015625,-883.7890625,0.0
1694471961.843054,-820.3125,678.22265625,-471.19140625,470.21484375,0.0
1694471961.8469768,476.07421875,644.04296875,-492.67578125,-1000.0,0.0
1694471961.8508809,-1000.0,-863.28125,-574.21875,-909.66796875,0.0
1694471961.854785,-651.85546875,-1000.0,-567.3828125,616.2109375,0.0
1694471961.858689,929.19921875,193.359375,-485.3515625,-984.86328125,0.0
1694471961.8625934,976.07421875,-980.46875,-478.515625,-479.00390625,0.0
1694471961.8664975,-505.859375,-306.640625,-531.73828125,-1000.0,0.0
1694471961.8704016,-1000.0,-1000.0,-523.92578125,68.84765625,0.0
1694471961.8743057,229.98046875,-177.24609375,-488.28125,-777.34375,0.0
1694471961.8782098,-771.484375,-842.28515625,-485.3515625,134.765625,0.0
1694471961.882114,94.23828125,127.44140625,-524.90234375,-1000.0,0.0
1694471961.886018,-1000.0,-1000.0,-564.453125,-257.32421875,0.0
1694471961.8899221,-251.46484375,-471.19140625,-535.64453125,-804.6875,0.0
1694471961.893843,-800.29296875,-942.87109375,-468.75,283.69140625,0.0
1694471961.897747,234.375,407.2265625,-501.953125,-1000.0,0.0
1694471961.9016511,-1000.0,-1000.0,-591.796875,-468.75,0.0
1694471961.9055552,-303.22265625,-822.265625,-548.33984375,-925.29296875,0.0
1694471961.9094594,-833.984375,665.0390625,-436.5234375,731.4453125,0.0
1694471961.9133635,600.09765625,795.8984375,-432.6171875,-846.6796875,0.0
1694471961.9172678,-1000.0,-690.4296875,-544.43359375,-979.00390625,0.0
1694471961.921172,-705.078125,-1000.0,-586.42578125,512.20703125,0.0
1694471961.925076,854.98046875,154.78515625,-480.46875,-824.70703125,0.0
1694471961.92898,-906.25,-899.4140625,-452.63671875,-112.79296875,0.0
1694471961.9328842,-255.859375,-127.44140625,-560.546875,-1000.0,0.0
1694471961.9367883,-1000.0,-1000.0,-601.5625,-77.63671875,0.0
1694471961.9407203,41.015625,-243.1640625,-483.3984375,-775.87890625,0.0
1694471961.9446244,-766.6015625,-836.42578125,-416.9921875,214.84375,0.0
1694471961.9485285,192.87109375,193.359375,-530.76171875,-1000.0,0.0
1694471961.9524326,-1000.0,-1000.0,-599.12109375,-269.53125,0.0
1694471961.956337,-265.625,-544.921875,-513.671875,-805.6640625,0.0
1694471961.960241,-799.31640625,991.2109375,-353.515625,395.99609375,0.0
1694471961.9641452,287.59765625,459.9609375,-424.8046875,-1000.0,0.0
1694471961.9680493,-1000.0,-1000.0,-585.44921875,-591.30859375,0.0
1694471961.9719534,-432.12890625,-948.73046875,-506.8359375,-975.5859375,0.0
1694471961.9758575,-891.11328125,485.3515625,-411.62109375,761.71875,0.0
1694471961.9797616,677.24609375,826.171875,-487.79296875,-770.01953125,0.0
1694471961.9836657,-905.76171875,-617.67578125,-583.49609375,-1000.0,0.0
1694471961.987592,-975.5859375,-1000.0,-576.66015625,270.5078125,0.0
1694471961.991496,524.4140625,-28.80859375,-500.0,-825.68359375,0.0
1694471961.9954002,-833.49609375,-899.90234375,-487.3046875,-135.25390625,0.0
1694471961.9993043,-177.734375,-89.35546875,-559.5703125,-1000.0,0.0
1694471962.0032084,-1000.0,-1000.0,-581.0546875,-203.61328125,0.0
1694471962.0071125,-62.5,-349.12109375,-490.234375,-808.59375,0.0
1694471962.0110166,-778.3203125,-887.6953125,-463.8671875,234.375,0.0
1694471962.014921,214.35546875,214.35546875,-553.22265625,-1000.0,0.0
1694471962.018825,-1000.0,-1000.0,-545.41015625,-296.38671875,0.0
1694471962.0227292,-267.578125,-687.98828125,-493.1640625,-816.89453125,0.0
1694471962.0266333,-803.22265625,835.9375,-489.74609375,373.046875,0.0
1694471962.0305374,327.63671875,506.34765625,-500.0,-1000.0,0.0
1694471962.0344646,-1000.0,-986.81640625,-584.9609375,-775.87890625,0.0
1694471962.0383687,-569.3359375,-1000.0,-573.73046875,812.98828125,0.0
1694471962.0422728,-994.62890625,301.7578125,-482.421875,880.859375,0.0
1694471962.046177,839.84375,913.57421875,-473.6328125,-653.80859375,0.0
1694471962.050081,-740.72265625,-495.1171875,-550.78125,-1000.0,0.0
1694471962.0539854,-1000.0,-1000.0,-562.5,136.71875,0.0
1694471962.0578895,452.63671875,-96.6796875,-478.515625,-784.1796875,0.0
1694471962.0617936,-805.17578125,-875.0,-416.015625,74.21875,0.0
1694471962.0656977,-62.01171875,1.953125,-483.3984375,-1000.0,0.0
1694471962.0696018,-1000.0,-1000.0,-604.00390625,-240.234375,0.0
1694471962.0735059,-137.20703125,-388.671875,-543.9453125,-802.734375,0.0
1694471962.07741,-784.66796875,-895.99609375,-437.01171875,240.72265625,0.0
1694471962.0813346,221.19140625,301.7578125,-485.3515625,-1000.0,0.0
1694471962.0852387,-1000.0,-1000.0,-613.76953125,-366.69921875,0.0
1694471962.0891428,-271.97265625,-745.1171875,-548.828125,-858.3984375,0.0
1694471962.0930471,-809.08203125,772.4609375,-451.66015625,587.890625,0.0
1694471962.0969512,478.515625,657.71484375,-497.0703125,-1000.0,0.0
1694471962.1008554,-1000.0,-862.79296875,-573.73046875,-778.3203125,0.0
1694471962.1047595,-587.40234375,-1000.0,-577.63671875,757.32421875,0.0
1694471962.1086636,975.5859375,284.1796875,-398.4375,-883.7890625,0.0
1694471962.1125677,967.7734375,-965.33203125,-370.1171875,-244.140625,0.0
1694471962.1164718,-521.484375,-285.15625,-589.35546875,-1000.0,0.0
1694471962.1203759,-1000.0,-1000.0,-591.30859375,81.54296875,0.0
1694471962.1242802,328.61328125,-141.6015625,-485.83984375,-763.671875,0.0
1694471962.1282413,-779.296875,-832.03125,-469.7265625,169.921875,0.0
1694471962.1321454,63.96484375,117.67578125,-552.24609375,-1000.0,0.0
1694471962.1360495,-1000.0,-1000.0,-576.171875,-263.18359375,0.0
1694471962.1399536,-248.046875,-443.359375,-510.7421875,-798.828125,0.0
1694471962.1438577,-801.7578125,-918.9453125,-471.6796875,293.9453125,0.0
1694471962.1477618,233.88671875,375.0,-519.53125,-1000.0,0.0
1694471962.1516662,-1000.0,-1000.0,-542.48046875,-397.94921875,0.0
1694471962.1555703,-288.0859375,-810.05859375,-471.6796875,-876.953125,0.0
1694471962.1594744,-824.21875,689.453125,-475.09765625,661.1328125,0.0
1694471962.1633785,552.24609375,740.72265625,-513.671875,-923.33984375,0.0
1694471962.1672826,-1000.0,-748.046875,-555.17578125,-911.62109375,0.0
1694471962.1711867,-737.3046875,-1000.0,-542.48046875,629.39453125,0.0
1694471962.175108,833.0078125,136.23046875,-495.60546875,-904.78515625,0.0
1694471962.179012,-935.546875,-942.87109375,-474.12109375,-282.71484375,0.0
1694471962.1829162,-338.37890625,-215.8203125,-543.9453125,-1000.0,0.0
1694471962.1868203,-1000.0,-1000.0,-600.09765625,-95.703125,0.0
1694471962.1907244,62.5,-251.46484375,-511.71875,-794.43359375,0.0
1694471962.1946285,-770.5078125,-860.3515625,-438.96484375,184.5703125,0.0
1694471962.1985328,153.80859375,141.11328125,-503.90625,-1000.0,0.0
1694471962.202437,-1000.0,-1000.0,-579.1015625,-258.30078125,0.0
1694471962.206341,-257.32421875,-571.2890625,-554.6875,-806.640625,0.0
1694471962.2102451,-803.22265625,958.0078125,-465.8203125,272.94921875,0.0
1694471962.2141492,239.74609375,404.296875,-483.88671875,-1000.0,0.0
1694471962.2180533,-1000.0,-1000.0,-601.07421875,-611.81640625,0.0
1694471962.221974,-431.640625,-950.68359375,-583.984375,-989.2578125,0.0
1694471962.225878,-881.8359375,473.6328125,-470.21484375,648.92578125,0.0
1694471962.229782,605.46875,770.99609375,-466.796875,-894.53125,0.0
1694471962.2336862,-990.234375,-684.5703125,-592.28515625,-1000.0,0.0
1694471962.2375906,-927.24609375,-1000.0,-592.7734375,232.421875,0.0
1694471962.2414947,582.03125,-19.04296875,-477.5390625,-824.70703125,0.0
1694471962.2453988,-861.81640625,-931.15234375,-330.56640625,-134.765625,0.0
1694471962.2493029,-240.72265625,-151.85546875,-439.94140625,-1000.0,0.0
1694471962.253207,-1000.0,-1000.0,-612.3046875,-191.40625,0.0
1694471962.257111,-42.96875,-335.44921875,-505.37109375,-813.96484375,0.0
1694471962.2610152,-778.3203125,-890.13671875,-460.44921875,175.78125,0.0
1694471962.2649195,212.890625,191.89453125,-551.7578125,-1000.0,0.0
1694471962.2688515,-1000.0,-1000.0,-612.79296875,-312.5,0.0
1694471962.2727559,-266.6015625,-677.734375,-542.48046875,-830.078125,0.0
1694471962.27666,-802.24609375,846.6796875,-478.515625,285.15625,0.0
1694471962.280564,307.6171875,484.86328125,-517.08984375,-1000.0,0.0
1694471962.2844682,-1000.0,-1000.0,-594.23828125,-737.79296875,0.0
1694471962.2883723,-537.59765625,-1000.0,-540.52734375,878.90625,0.0
1694471962.2922764,-957.51953125,349.12109375,-459.9609375,722.16796875,0.0
1694471962.2961805,761.23046875,889.16015625,-489.2578125,-836.9140625,0.0
1694471962.3000848,-827.1484375,-532.71484375,-571.77734375,-1000.0,0.0
1694471962.303989,-1000.0,-1000.0,-577.1484375,164.0625,0.0
1694471962.307893,457.03125,-73.73046875,-488.28125,-816.89453125,0.0
1694471962.3117971,-810.546875,-874.51171875,-461.42578125,-87.40234375,0.0
1694471962.3157268,-99.609375,-11.71875,-567.87109375,-1000.0,0.0
1694471962.3196309,-1000.0,-1000.0,-600.5859375,-218.75,0.0
1694471962.323535,-93.75,-353.02734375,-517.08984375,-812.01171875,0.0
1694471962.327439,-777.83203125,-875.48828125,-480.46875,231.93359375,0.0
1694471962.3313434,215.8203125,271.484375,-520.01953125,-1000.0,0.0
1694471962.3352475,-1000.0,-1000.0,-555.6640625,-348.6328125,0.0
1694471962.3391516,-271.484375,-734.375,-514.16015625,-841.30859375,0.0
1694471962.3430557,-805.6640625,788.0859375,-438.96484375,479.00390625,0.0
1694471962.3469598,418.45703125,605.46875,-440.4296875,-1000.0,0.0
1694471962.350864,-1000.0,-908.203125,-530.76171875,-787.59765625,0.0
1694471962.3547683,-583.0078125,-1000.0,-583.49609375,797.36328125,0.0
1694471962.3586724,986.81640625,286.1328125,-496.58203125,949.70703125,0.0
1694471962.3626027,914.0625,988.28125,-478.515625,-546.875,0.0
1694471962.3665068,-601.07421875,-370.1171875,-562.5,-1000.0,0.0
1694471962.370411,-1000.0,-1000.0,-583.984375,114.74609375,0.0
1694471962.374315,322.75390625,-131.34765625,-504.39453125,-776.3671875,0.0
1694471962.3782191,-785.64453125,-849.609375,-447.75390625,117.1875,0.0
1694471962.3821232,20.99609375,73.2421875,-511.23046875,-1000.0,0.0
1694471962.3860273,-1000.0,-1000.0,-572.75390625,-245.1171875,0.0
1694471962.3899317,-230.95703125,-446.2890625,-537.59765625,-801.7578125,0.0
1694471962.3938358,-802.24609375,-927.734375,-371.09375,273.4375,0.0
1694471962.39774,233.3984375,345.21484375,-419.43359375,-1000.0,0.0
1694471962.401644,-1000.0,-1000.0,-625.0,-440.91796875,0.0
1694471962.405548,-296.38671875,-825.68359375,-542.96875,-883.7890625,0.0
1694471962.4094725,-821.77734375,669.43359375,-439.453125,584.9609375,0.0
1694471962.4133766,502.44140625,682.6171875,-497.55859375,-988.28125,0.0
1694471962.417281,-1000.0,-811.03515625,-613.28125,-932.12890625,0.0
1694471962.421185,-722.65625,-1000.0,-561.03515625,603.02734375,0.0
1694471962.4250891,862.3046875,145.5078125,-438.4765625,-943.84765625,0.0
1694471962.4289932,-996.09375,-969.7265625,-457.03125,-382.8125,0.0
1694471962.4328973,-453.61328125,-268.06640625,-550.78125,-1000.0,0.0
1694471962.4368014,-1000.0,-1000.0,-547.8515625,-21.97265625,0.0
1694471962.4407058,113.28125,-238.28125,-442.87109375,-787.109375,0.0
1694471962.4446099,-772.94921875,-860.3515625,-479.98046875,145.5078125,0.0
1694471962.448514,108.88671875,131.34765625,-560.05859375,-1000.0,0.0
1694471962.452418,-1000.0,-1000.0,-590.8203125,-254.8828125,0.0
1694471962.4563437,-251.953125,-549.31640625,-540.52734375,-808.10546875,0.0
1694471962.4602478,-805.17578125,978.515625,-490.72265625,261.71875,0.0
1694471962.4641519,239.74609375,390.13671875,-520.99609375,-1000.0,0.0
1694471962.468056,-1000.0,-1000.0,-598.14453125,-561.5234375,0.0
1694471962.47196,-406.25,-929.6875,-559.08203125,-952.1484375,0.0
1694471962.4758642,-869.62890625,509.765625,-445.80078125,630.37109375,0.0
1694471962.4797685,585.44921875,745.1171875,-472.16796875,-940.91796875,0.0
1694471962.4836726,-1000.0,-720.703125,-524.4140625,-1000.0,0.0
1694471962.4875767,-877.44140625,-1000.0,-529.296875,455.56640625,0.0
1694471962.4914808,652.83203125,11.23046875,-508.7890625,-921.875,0.0
1694471962.495385,-879.39453125,-929.19921875,-480.95703125,-337.40234375,0.0
1694471962.499289,-278.80859375,-163.57421875,-558.10546875,-1000.0,0.0
1694471962.5032156,-1000.0,-1000.0,-604.00390625,-160.15625,0.0
1694471962.5071197,14.16015625,-304.6875,-537.109375,-816.89453125,0.0
1694471962.5110238,-771.97265625,-876.46484375,-456.54296875,165.52734375,0.0
1694471962.514928,191.40625,176.26953125,-502.44140625,-1000.0,0.0
1694471962.5188322,-1000.0,-1000.0,-580.56640625,-284.66796875,0.0
1694471962.5227363,-264.16015625,-638.18359375,-521.97265625,-820.3125,0.0
1694471962.5266404,-802.24609375,888.671875,-418.9453125,286.62109375,0.0
1694471962.5305445,285.64453125,468.26171875,-425.78125,-1000.0,0.0
1694471962.5344486,-1000.0,-1000.0,-602.5390625,-688.4765625,0.0
1694471962.538353,-500.48828125,-999.0234375,-577.1484375,924.31640625,0.0
1694471962.542257,-932.6171875,392.578125,-432.6171875,750.9765625,0.0
1694471962.5461612,723.14453125,869.140625,-459.47265625,-803.7109375,0.0
1694471962.550085,-884.27734375,-567.3828125,-592.28515625,-1000.0,0.0
1694471962.5539892,-957.51953125,-1000.0,-591.796875,224.609375,0.0
1694471962.5578933,545.41015625,-40.0390625,-485.3515625,-850.5859375,0.0
1694471962.5617976,-827.1484375,-877.9296875,-478.515625,-199.21875,0.0
1694471962.5657017,-130.859375,-33.69140625,-554.19921875,-1000.0,0.0
1694471962.5696058,-1000.0,-1000.0,-583.984375,-189.94140625,0.0
1694471962.57351,-76.171875,-341.796875,-440.4296875,-812.01171875,0.0
1694471962.577414,-776.85546875,-872.55859375,-378.90625,224.12109375,0.0
1694471962.5813181,214.84375,255.859375,-547.36328125,-1000.0,0.0
1694471962.5852225,-1000.0,-1000.0,-603.515625,-333.49609375,0.0
1694471962.5891266,-270.99609375,-687.01171875,-530.2734375,-833.0078125,0.0
1694471962.5930307,-803.7109375,842.28515625,-469.23828125,407.71484375,0.0
1694471962.5969627,406.73828125,583.0078125,-496.58203125,-1000.0,0.0
1694471962.6008668,-1000.0,-933.59375,-568.84765625,-737.79296875,0.0
1694471962.604771,-540.0390625,-1000.0,-560.546875,861.328125,0.0
1694471962.608675,-976.5625,343.26171875,-487.3046875,870.60546875,0.0
1694471962.612579,869.62890625,974.12109375,-479.98046875,-669.921875,0.0
1694471962.6164832,-672.36328125,-402.83203125,-522.4609375,-1000.0,0.0
1694471962.6203876,-1000.0,-1000.0,-520.01953125,216.796875,0.0
1694471962.6242917,402.83203125,-105.95703125,-482.421875,-794.43359375,0.0
1694471962.6281958,-794.921875,-847.16796875,-476.5625,-8.7890625,0.0
1694471962.6320999,-7.32421875,66.40625,-513.671875,-1000.0,0.0
1694471962.636004,-1000.0,-1000.0,-556.15234375,-238.76953125,0.0
1694471962.6399083,-193.359375,-414.0625,-535.64453125,-813.96484375,0.0
1694471962.6438377,-793.45703125,-903.80859375,-477.5390625,243.1640625,0.0
1694471962.6477418,228.02734375,318.359375,-508.7890625,-1000.0,0.0
1694471962.651646,-1000.0,-1000.0,-584.9609375,-449.21875,0.0
1694471962.65555,-276.85546875,-799.31640625,-546.38671875,-879.39453125,0.0
1694471962.6594543,-813.4765625,706.54296875,-457.51953125,444.82421875,0.0
1694471962.6633584,483.88671875,646.484375,-458.984375,-1000.0,0.0
1694471962.6672626,-1000.0,-851.07421875,-578.125,-961.42578125,0.0
1694471962.6711667,-687.98828125,-1000.0,-590.33203125,568.84765625,0.0
1694471962.6750708,900.87890625,175.78125,-490.72265625,941.89453125,0.0
1694471962.6789749,973.14453125,996.58203125,-410.64453125,-566.89453125,0.0
1694471962.6828792,-497.0703125,-333.49609375,-504.39453125,-1000.0,0.0
1694471962.6867833,-1000.0,-1000.0,-618.1640625,-85.9375,0.0
1694471962.6907134,143.06640625,-215.33203125,-507.8125,-812.5,0.0
1694471962.6946175,-775.390625,-869.62890625,-455.078125,106.93359375,0.0
1694471962.6985216,69.3359375,99.12109375,-549.8046875,-1000.0,0.0
1694471962.7024257,-1000.0,-1000.0,-610.3515625,-227.5390625,0.0
1694471962.70633,-247.0703125,-535.64453125,-514.16015625,-869.140625,0.0
1694471962.7102342,-806.640625,997.55859375,-424.8046875,155.76171875,0.0
1694471962.7141383,238.76953125,363.28125,-492.1875,-1000.0,0.0
1694471962.7180424,-1000.0,-1000.0,-596.19140625,-577.1484375,0.0
1694471962.7219465,-375.0,-913.57421875,-517.08984375,-948.2421875,0.0
1694471962.7258508,-855.46875,527.34375,-377.44140625,503.41796875,0.0
1694471962.729755,560.546875,727.5390625,-471.19140625,-998.53515625,0.0
1694471962.733659,-1000.0,-744.62890625,-600.09765625,-1000.0,0.0
1694471962.737587,-834.47265625,-1000.0,-579.58984375,308.10546875,0.0
1694471962.741491,706.54296875,36.62109375,-498.046875,-957.51953125,0.0
1694471962.7453952,-898.4375,-931.640625,-477.5390625,-419.43359375,0.0
1694471962.7492993,-307.6171875,-181.640625,-558.10546875,-1000.0,0.0
1694471962.7532036,-1000.0,-1000.0,-572.75390625,-157.2265625,0.0
1694471962.7571077,46.38671875,-275.390625,-476.5625,-812.01171875,0.0
1694471962.7610118,-769.04296875,-857.421875,-451.66015625,207.51953125,0.0
1694471962.764916,187.5,186.03515625,-534.1796875,-1000.0,0.0
1694471962.76882,-1000.0,-1000.0,-533.203125,-260.7421875,0.0
1694471962.7727242,-264.16015625,-575.1953125,-486.328125,-806.15234375,0.0
1694471962.7766285,-799.8046875,957.03125,-476.5625,303.22265625,0.0
1694471962.7805326,282.71484375,469.7265625,-500.48828125,-1000.0,0.0
1694471962.7844582,-1000.0,-1000.0,-588.37890625,-640.13671875,0.0
1694471962.7883623,-435.546875,-947.75390625,-568.84765625,957.51953125,0.0
1694471962.7922664,-906.73828125,477.5390625,-485.3515625,788.0859375,0.0
1694471962.7961707,732.421875,891.11328125,-466.30859375,-769.04296875,0.0
1694471962.8000748,-882.8125,-552.734375,-543.45703125,-1000.0,0.0
1694471962.803979,-895.5078125,-1000.0,-560.546875,266.6015625,0.0
1694471962.807883,639.6484375,9.27734375,-477.5390625,-786.1328125,0.0
1694471962.8117871,-833.984375,-861.328125,-420.8984375,26.85546875,0.0
1694471962.8156915,-139.6484375,-20.01953125,-479.98046875,-1000.0,0.0
1694471962.8195956,-1000.0,-1000.0,-593.75,-195.3125,0.0
1694471962.8234997,2.9296875,-294.921875,-527.34375,-792.96875,0.0
1694471962.8274038,-763.671875,-844.23828125,-401.3671875,229.4921875,0.0
1694471962.8313267,205.56640625,270.5078125,-452.63671875,-1000.0,0.0
1694471962.835231,-1000.0,-1000.0,-599.609375,-311.5234375,0.0
1694471962.8391352,-272.4609375,-644.04296875,-541.50390625,-828.125,0.0
1694471962.8430393,-802.734375,893.5546875,-434.5703125,521.97265625,0.0
1694471962.8469434,399.90234375,588.8671875,-474.12109375,-1000.0,0.0
1694471962.8508475,-1000.0,-925.29296875,-567.87109375,-695.3125,0.0
1694471962.8547516,-520.99609375,-1000.0,-561.5234375,868.1640625,0.0
1694471962.858656,-961.42578125,373.53515625,-401.85546875,-968.26171875,0.0
1694471962.86256,845.21484375,964.35546875,-383.7890625,-390.625,0.0
1694471962.8664641,-706.0546875,-418.9453125,-586.9140625,-1000.0,0.0
1694471962.8703682,-1000.0,-1000.0,-592.7734375,128.90625,0.0
1694471962.8742723,435.546875,-100.09765625,-500.48828125,-779.296875,0.0
1694471962.8781962,-803.7109375,-863.76953125,-486.328125,62.5,0.0
1694471962.8821003,-48.828125,25.87890625,-553.22265625,-1000.0,0.0
1694471962.8860044,-1000.0,-1000.0,-568.84765625,-239.74609375,0.0
1694471962.8899088,-181.15234375,-422.8515625,-501.953125,-804.6875,0.0
1694471962.893813,-793.9453125,-916.9921875,-444.82421875,238.28125,0.0
1694471962.897717,227.05078125,299.31640625,-508.30078125,-1000.0,0.0
1694471962.901621,-1000.0,-1000.0,-548.828125,-382.8125,0.0
1694471962.9055252,-270.5078125,-791.9921875,-465.8203125,-858.3984375,0.0
1694471962.9094296,-809.5703125,714.35546875,-475.5859375,543.45703125,0.0
1694471962.9133337,454.58984375,616.69921875,-518.5546875,-1000.0,0.0
1694471962.9172378,-1000.0,-879.8828125,-587.40234375,-847.65625,0.0
1694471962.9211419,-659.1796875,-1000.0,-574.21875,707.51953125,0.0
1694471962.9250631,930.6640625,186.5234375,-500.0,-968.26171875,0.0
1694471962.9289675,947.75390625,978.02734375,-490.234375,-409.66796875,0.0
1694471962.9328716,-538.0859375,-370.1171875,-562.98828125,-1000.0,0.0
1694471962.9367757,-1000.0,-1000.0,-605.46875,4.39453125,0.0
1694471962.9406798,183.59375,-203.125,-511.23046875,-781.73828125,0.0
1694471962.944584,-776.3671875,-872.0703125,-452.63671875,161.1328125,0.0
1694471962.9484882,56.15234375,83.0078125,-498.53515625,-1000.0,0.0
1694471962.9523923,-1000.0,-1000.0,-569.3359375,-258.30078125,0.0
1694471962.9562964,-240.72265625,-511.23046875,-544.43359375,-803.7109375,0.0
1694471962.9602005,-803.7109375,-991.2109375,-466.796875,273.4375,0.0
1694471962.9641047,235.83984375,357.421875,-510.25390625,-1000.0,0.0
1694471962.9680088,-1000.0,-1000.0,-589.35546875,-482.421875,0.0
1694471962.9719274,-328.125,-864.74609375,-567.87109375,-925.29296875,0.0
1694471962.9758317,-839.35546875,605.95703125,-451.66015625,705.078125,0.0
1694471962.9797359,566.89453125,736.328125,-449.21875,-868.65234375,0.0
1694471962.98364,-1000.0,-766.6015625,-587.890625,-999.0234375,0.0
1694471962.987544,-739.74609375,-1000.0,-584.9609375,456.54296875,0.0
1694471962.9914482,892.578125,193.84765625,-455.56640625,-804.6875,0.0
1694471962.9953523,979.98046875,973.6328125,-385.25390625,-60.546875,0.0
1694471962.9992566,-498.046875,-333.0078125,-502.9296875,-1000.0,0.0
1694471963.0031607,-1000.0,-1000.0,-602.5390625,-60.05859375,0.0
1694471963.0070648,126.953125,-230.46875,-478.515625,-768.5546875,0.0
1694471963.010969,-766.11328125,-843.75,-414.0625,203.61328125,0.0
1694471963.014873,178.7109375,186.5234375,-546.875,-1000.0,0.0
1694471963.0188034,-1000.0,-1000.0,-595.21484375,-270.01953125,0.0
1694471963.0227077,-265.625,-523.4375,-513.18359375,-805.17578125,0.0
1694471963.0266118,-797.8515625,-990.72265625,-440.4296875,426.26953125,0.0
1694471963.030516,286.1328125,484.375,-509.765625,-1000.0,0.0
1694471963.03442,-1000.0,-1000.0,-591.30859375,-507.32421875,0.0
1694471963.038324,-383.30078125,-895.99609375,-522.4609375,-979.98046875,0.0
1694471963.0422282,-882.8125,567.87109375,-455.56640625,923.33984375,0.0
1694471963.0461326,716.796875,891.11328125,-490.234375,-597.16796875,0.0
1694471963.0500367,-900.390625,-557.6171875,-571.77734375,-1000.0,0.0
1694471963.0539408,-850.09765625,-1000.0,-543.45703125,475.5859375,0.0
1694471963.0578449,700.1953125,44.921875,-462.40234375,-785.64453125,0.0
1694471963.061749,-848.14453125,-866.69921875,-477.05078125,43.45703125,0.0
1694471963.065677,-167.48046875,-40.0390625,-554.19921875,-1000.0,0.0
1694471963.069581,-1000.0,-1000.0,-585.44921875,-68.84765625,0.0
1694471963.0734851,21.484375,-291.015625,-515.625,-753.90625,0.0
1694471963.0773892,-762.6953125,-847.16796875,-473.6328125,190.91796875,0.0
1694471963.0812936,204.1015625,227.05078125,-513.18359375,-1000.0,0.0
1694471963.0851977,-1000.0,-1000.0,-546.38671875,-184.5703125,0.0
1694471963.0891018,-269.53125,-662.59765625,-511.23046875,-822.75390625,0.0
1694471963.093006,-802.24609375,872.0703125,-452.63671875,485.3515625,0.0
1694471963.09691,333.0078125,512.6953125,-444.82421875,-1000.0,0.0
1694471963.1008143,-1000.0,-987.3046875,-528.80859375,-704.1015625,0.0
1694471963.1047184,-539.0625,-1000.0,-581.0546875,932.12890625,0.0
1694471963.1086226,-952.63671875,355.46875,-492.1875,825.68359375,0.0
1694471963.1125515,754.8828125,868.1640625,-469.23828125,-684.08203125,0.0
1694471963.1164556,-801.7578125,-538.57421875,-562.01171875,-1000.0,0.0
1694471963.1203597,-1000.0,-1000.0,-602.05078125,131.8359375,0.0
1694471963.1242638,433.10546875,-71.2890625,-510.25390625,-811.5234375,0.0
1694471963.1281679,-962.890625,956.54296875,-460.9375,-59.5703125,0.0
1694471963.1320722,-397.94921875,-305.6640625,-538.0859375,-1000.0,0.0
1694471963.1359763,-1000.0,-1000.0,-585.9375,-232.91015625,0.0
1694471963.1398804,-183.10546875,-448.73046875,-545.8984375,-816.40625,0.0
1694471963.1437845,-812.5,-970.21484375,-395.99609375,241.2109375,0.0
1694471963.1476886,229.98046875,250.9765625,-446.77734375,-1000.0,0.0
1694471963.1515927,-1000.0,-1000.0,-626.46484375,-421.38671875,0.0
1694471963.155497,-268.06640625,-806.640625,-545.8984375,-866.69921875,0.0
1694471963.159423,-806.640625,684.5703125,-461.42578125,408.203125,0.0
1694471963.1633272,395.99609375,556.640625,-521.97265625,-1000.0,0.0
1694471963.1672313,-1000.0,-934.5703125,-609.375,-883.7890625,0.0
1694471963.1711354,-668.9453125,-1000.0,-567.3828125,659.1796875,0.0
1694471963.1750395,937.98828125,190.4296875,-453.61328125,948.2421875,0.0
1694471963.1789439,874.0234375,935.546875,-449.70703125,-564.453125,0.0
1694471963.182848,-651.85546875,-432.12890625,-556.640625,-1000.0,0.0
1694471963.186752,-1000.0,-1000.0,-546.875,46.38671875,0.0
1694471963.1906562,188.4765625,-194.3359375,-446.77734375,-788.0859375,0.0
1694471963.1945603,-782.71484375,-878.41796875,-488.76953125,98.14453125,0.0
1694471963.1984646,26.3671875,63.4765625,-560.546875,-1000.0,0.0
1694471963.2023687,-1000.0,-1000.0,-593.26171875,-250.48828125,0.0
1694471963.2062924,-227.5390625,-476.07421875,-536.1328125,-804.19921875,0.0
1694471963.2101965,-801.26953125,-958.984375,-487.3046875,258.7890625,0.0
1694471963.2141006,233.3984375,354.98046875,-533.69140625,-1000.0,0.0
1694471963.2180047,-1000.0,-1000.0,-592.28515625,-380.37109375,0.0
1694471963.221909,-299.8046875,-820.3125,-556.640625,-886.23046875,0.0
1694471963.2258132,-826.66015625,665.52734375,-447.75390625,708.0078125,0.0
1694471963.2297173,542.96875,729.4921875,-466.30859375,-914.0625,0.0
1694471963.2336214,-1000.0,-763.671875,-531.73828125,-798.33984375,0.0
1694471963.2375255,-704.58984375,-1000.0,-530.76171875,745.60546875,0.0
1694471963.2414298,856.4453125,147.4609375,-500.9765625,-858.3984375,0.0
1694471963.245334,-928.22265625,-918.9453125,-459.47265625,-145.01953125,0.0
1694471963.249238,-344.7265625,-184.08203125,-541.9921875,-1000.0,0.0
1694471963.2531593,-1000.0,-1000.0,-589.84375,17.578125,0.0
1694471963.2570634,172.36328125,-200.1953125,-512.6953125,-762.6953125,0.0
1694471963.2609675,-761.23046875,-832.03125,-443.359375,200.1953125,0.0
1694471963.2648716,166.015625,171.875,-509.765625,-1000.0,0.0
1694471963.2687757,-1000.0,-1000.0,-590.8203125,-272.94921875,0.0
1694471963.27268,-257.8125,-500.0,-506.8359375,-805.17578125,0.0
1694471963.2765841,-797.36328125,-967.28515625,-404.78515625,450.68359375,0.0
1694471963.2804883,261.71875,450.68359375,-437.98828125,-1000.0,0.0
1694471963.2843924,-1000.0,-1000.0,-588.37890625,-508.30078125,0.0
1694471963.2882965,-382.32421875,-909.66796875,-553.7109375,-945.3125,0.0
1694471963.2922008,-868.1640625,551.7578125,-441.89453125,830.56640625,0.0
1694471963.296105,641.6015625,828.61328125,-463.37890625,-696.77734375,0.0
1694471963.300027,-967.28515625,-633.30078125,-582.03125,-1000.0,0.0
1694471963.303931,-864.74609375,-1000.0,-585.44921875,413.0859375,0.0
1694471963.307835,673.828125,38.57421875,-481.4453125,-818.359375,0.0
1694471963.3117392,-863.76953125,-901.85546875,-474.12109375,-103.515625,0.0
1694471963.3156433,-214.84375,-109.86328125,-547.8515625,-1000.0,0.0
1694471963.3195477,-1000.0,-1000.0,-580.56640625,-166.50390625,0.0
1694471963.3234518,-24.90234375,-331.0546875,-439.453125,-798.828125,0.0
1694471963.3273559,-774.4140625,-886.23046875,-382.32421875,213.8671875,0.0
1694471963.33126,202.63671875,181.15234375,-552.734375,-1000.0,0.0
1694471963.335164,-1000.0,-1000.0,-592.7734375,-309.08203125,0.0
1694471963.3390684,-265.13671875,-689.94140625,-529.296875,-822.75390625,0.0
1694471963.3429725,-803.7109375,828.61328125,-461.42578125,310.546875,0.0
1694471963.346892,291.9921875,462.40234375,-491.2109375,-1000.0,0.0
1694471963.3507962,-1000.0,-1000.0,-587.40234375,-754.39453125,0.0
1694471963.3547003,-545.8984375,-1000.0,-551.26953125,873.046875,0.0
1694471963.3586044,-952.1484375,326.171875,-483.88671875,705.078125,0.0
1694471963.3625085,718.26171875,832.51953125,-491.69921875,-854.4921875,0.0
1694471963.3664129,-862.3046875,-593.26171875,-547.8515625,-1000.0,0.0
1694471963.370317,-1000.0,-1000.0,-531.73828125,202.1484375,0.0
1694471963.374221,406.73828125,-110.3515625,-488.76953125,-873.046875,0.0
1694471963.3781252,-822.75390625,-915.52734375,-488.28125,-239.74609375,0.0
1694471963.3820293,-148.4375,-69.3359375,-549.8046875,-1000.0,0.0
1694471963.3859336,-1000.0,-1000.0,-574.21875,-220.21484375,0.0
1694471963.3898377,-159.1796875,-418.9453125,-518.5546875,-825.68359375,0.0
1694471963.3937585,-797.8515625,-934.5703125,-478.02734375,226.07421875,0.0
1694471963.3976626,226.5625,243.65234375,-527.83203125,-1000.0,0.0
1694471963.4015667,-1000.0,-1000.0,-585.9375,-386.71875,0.0
1694471963.405471,-269.04296875,-754.8828125,-548.33984375,-853.02734375,0.0
1694471963.4093752,-806.15234375,750.48828125,-469.7265625,366.69921875,0.0
1694471963.4132793,407.71484375,579.1015625,-465.33203125,-1000.0,0.0
1694471963.4171834,-1000.0,-929.19921875,-585.44921875,-878.90625,0.0
1694471963.4210875,-608.88671875,-1000.0,-587.40234375,665.52734375,0.0
1694471963.4249918,976.5625,261.71875,-479.00390625,929.6875,0.0
1694471963.428896,898.92578125,977.05078125,-417.48046875,-599.12109375,0.0
1694471963.4328,-630.859375,-386.23046875,-528.3203125,-1000.0,0.0
1694471963.4367042,-1000.0,-1000.0,-598.14453125,46.38671875,0.0
1694471963.4406328,312.01171875,-137.20703125,-486.81640625,-783.203125,0.0
1694471963.444537,-781.73828125,-843.75,-447.265625,139.6484375,0.0
1694471963.448441,30.76171875,95.703125,-544.43359375,-1000.0,0.0
1694471963.4523454,-1000.0,-1000.0,-604.98046875,-218.75,0.0
1694471963.4562495,-197.265625,-405.2734375,-500.48828125,-907.71484375,0.0
1694471963.4601536,-790.52734375,-889.6484375,-405.2734375,80.56640625,0.0
1694471963.4640577,226.5625,359.86328125,-486.328125,-1000.0,0.0
1694471963.4679618,-1000.0,-1000.0,-591.796875,-416.50390625,0.0
1694471963.4718661,-271.484375,-775.390625,-499.0234375,-889.16015625,0.0
1694471963.4757702,-815.91796875,727.5390625,-394.04296875,627.44140625,0.0
1694471963.4796743,532.71484375,733.88671875,-503.41796875,-944.82421875,0.0
1694471963.4835784,-1000.0,-760.7421875,-597.16796875,-953.125,0.0
1694471963.487508,-682.12890625,-1000.0,-575.68359375,564.94140625,0.0
1694471963.4914124,890.625,179.6875,-485.3515625,-888.671875,0.0
1694471963.4953165,-960.9375,-926.26953125,-479.98046875,-287.59765625,0.0
1694471963.4992206,-396.97265625,-203.125,-564.453125,-1000.0,0.0
1694471963.5031247,-1000.0,-1000.0,-577.63671875,-27.34375,0.0
1694471963.5070288,193.84765625,-194.3359375,-487.79296875,-781.25,0.0
1694471963.5109332,-764.6484375,-837.890625,-456.0546875,169.921875,0.0
1694471963.5148373,134.765625,142.578125,-546.38671875,-1000.0,0.0
1694471963.5187414,-1000.0,-1000.0,-542.48046875,-258.7890625,0.0
1694471963.5226455,-256.8359375,-525.390625,-477.05078125,-807.12890625,0.0
1694471963.5265496,-803.22265625,-991.2109375,-480.95703125,271.484375,0.0
1694471963.530454,239.2578125,388.18359375,-508.7890625,-1000.0,0.0
1694471963.5343845,-1000.0,-1000.0,-582.03125,-598.14453125,0.0
1694471963.5382886,-415.52734375,-928.22265625,-567.3828125,-978.02734375,0.0
1694471963.542193,-854.00390625,516.6015625,-489.2578125,631.34765625,0.0
1694471963.546097,557.6171875,747.55859375,-483.88671875,-998.53515625,0.0
1694471963.5500011,-935.05859375,-734.375,-542.48046875,-933.10546875,0.0
1694471963.5539052,-597.65625,-1000.0,-539.0625,642.08984375,0.0
1694471963.5578094,732.91015625,92.28515625,-479.4921875,-918.45703125,0.0
1694471963.5617137,-898.4375,-954.1015625,-431.640625,-315.91796875,0.0
1694471963.5656178,-323.2421875,-244.140625,-500.0,-1000.0,0.0
1694471963.569522,-1000.0,-1000.0,-604.98046875,-187.5,0.0
1694471963.573426,172.36328125,-155.2734375,-509.27734375,-821.77734375,0.0
1694471963.5773304,-795.8984375,-916.015625,-455.078125,193.359375,0.0
1694471963.5812583,182.6171875,160.15625,-548.828125,-1000.0,0.0
1694471963.5851624,-1000.0,-1000.0,-614.74609375,-329.1015625,0.0
1694471963.5890665,-262.20703125,-681.640625,-538.57421875,-830.078125,0.0
1694471963.5929706,-803.7109375,837.40234375,-451.171875,312.98828125,0.0
1694471963.596875,281.73828125,451.171875,-498.046875,-1000.0,0.0
1694471963.600779,-1000.0,-1000.0,-565.4296875,-663.57421875,0.0
1694471963.6046832,-507.8125,-1000.0,-566.40625,883.30078125,0.0
1694471963.6085873,-936.03515625,372.55859375,-413.0859375,812.01171875,0.0
1694471963.6124916,719.23828125,840.33203125,-402.83203125,-715.8203125,0.0
1694471963.6163957,-876.953125,-593.26171875,-606.93359375,-1000.0,0.0
1694471963.6202998,-989.74609375,-1000.0,-591.30859375,142.08984375,0.0
1694471963.624204,496.58203125,-71.2890625,-490.234375,-836.9140625,0.0
1694471963.6281295,-821.77734375,-883.7890625,-475.5859375,-146.484375,0.0
1694471963.6320336,-130.859375,-32.71484375,-543.45703125,-1000.0,0.0
1694471963.6359377,-1000.0,-1000.0,-572.265625,-213.37890625,0.0
1694471963.6398418,-82.03125,-350.09765625,-508.30078125,-814.453125,0.0
1694471963.6437461,-777.83203125,-875.48828125,-463.8671875,232.91015625,0.0
1694471963.6476502,215.33203125,267.08984375,-508.30078125,-1000.0,0.0
1694471963.6515543,-1000.0,-1000.0,-550.29296875,-334.9609375,0.0
1694471963.6554585,-271.484375,-675.29296875,-485.83984375,-834.47265625,0.0
1694471963.6593626,-803.7109375,850.5859375,-465.8203125,461.42578125,0.0
1694471963.663267,412.109375,605.46875,-505.37109375,-1000.0,0.0
1694471963.667171,-1000.0,-910.15625,-575.68359375,-695.3125,0.0
1694471963.671075,-538.57421875,-1000.0,-562.5,862.3046875,0.0
1694471963.6749945,-988.28125,334.9609375,-490.234375,988.28125,0.0
1694471963.6788986,908.69140625,995.60546875,-482.91015625,-459.9609375,0.0
1694471963.6828027,-622.0703125,-367.1875,-568.359375,-1000.0,0.0
1694471963.6867068,-1000.0,-1000.0,-592.28515625,103.02734375,0.0
1694471963.6906111,417.48046875,-104.4921875,-495.1171875,-771.484375,0.0
1694471963.6945152,-788.57421875,-837.40234375,-467.28515625,153.3203125,0.0
1694471963.6984193,20.99609375,82.51953125,-496.58203125,-1000.0,0.0
1694471963.7023234,-1000.0,-1000.0,-532.2265625,-252.44140625,0.0
1694471963.7062275,-167.96875,-389.6484375,-532.71484375,-799.31640625,0.0
1694471963.710132,-784.1796875,-885.7421875,-465.33203125,257.8125,0.0
1694471963.714036,222.65625,349.609375,-504.39453125,-1000.0,0.0
1694471963.71794,-1000.0,-1000.0,-593.75,-413.57421875,0.0
1694471963.7218637,-271.97265625,-761.71875,-553.7109375,-884.27734375,0.0
1694471963.725768,-812.5,753.90625,-452.63671875,646.97265625,0.0
1694471963.7296722,503.90625,692.87109375,-464.84375,-937.5,0.0
1694471963.7335763,-1000.0,-802.734375,-586.9140625,-933.59375,0.0
1694471963.7374804,-649.4140625,-1000.0,-581.0546875,573.73046875,0.0
1694471963.7413845,926.26953125,188.96484375,-448.2421875,-856.4453125,0.0
1694471963.7452888,-995.60546875,-957.51953125,-388.671875,-196.2890625,0.0
1694471963.749193,-436.5234375,-256.8359375,-515.13671875,-1000.0,0.0
1694471963.753097,-1000.0,-1000.0,-596.6796875,-48.828125,0.0
1694471963.7570012,168.45703125,-211.9140625,-502.44140625,-785.15625,0.0
1694471963.7609055,-772.4609375,-858.88671875,-451.66015625,136.71875,0.0
1694471963.7648096,81.0546875,110.3515625,-555.6640625,-1000.0,0.0
1694471963.7687306,-1000.0,-1000.0,-615.72265625,-251.953125,0.0
1694471963.772635,-249.0234375,-537.59765625,-531.25,-810.05859375,0.0
1694471963.776539,-806.15234375,988.76953125,-463.37890625,244.140625,0.0
1694471963.7804432,239.2578125,379.39453125,-523.92578125,-1000.0,0.0
1694471963.7843473,-1000.0,-1000.0,-600.09765625,-612.79296875,0.0
1694471963.7882514,-391.6015625,-919.921875,-515.625,-981.4453125,0.0
1694471963.7921557,-862.3046875,527.83203125,-437.5,564.453125,0.0
1694471963.7960598,569.82421875,731.93359375,-505.859375,-970.21484375,0.0
1694471963.799964,-1000.0,-739.2578125,-580.56640625,-1000.0,0.0
1694471963.803868,-847.65625,-1000.0,-541.9921875,307.6171875,0.0
1694471963.8077724,692.3828125,31.73828125,-459.47265625,-912.59765625,0.0
1694471963.8116765,-898.4375,-945.3125,-463.8671875,-331.0546875,0.0
1694471963.8156092,-302.734375,-195.3125,-561.5234375,-1000.0,0.0
1694471963.8195133,-1000.0,-1000.0,-587.40234375,-175.29296875,0.0
1694471963.8234174,8.7890625,-310.546875,-520.5078125,-822.75390625,0.0
1694471963.8273218,-774.90234375,-886.71875,-486.81640625,155.2734375,0.0
1694471963.8312259,183.10546875,157.71484375,-522.94921875,-1000.0,0.0
1694471963.83513,-1000.0,-1000.0,-565.4296875,-293.45703125,0.0
1694471963.839034,-262.20703125,-639.16015625,-514.16015625,-824.70703125,0.0
1694471963.8429384,-801.7578125,883.30078125,-443.84765625,306.15234375,0.0
1694471963.8468425,275.87890625,462.890625,-463.37890625,-1000.0,0.0
1694471963.8507466,-1000.0,-1000.0,-544.43359375,-718.26171875,0.0
1694471963.8546507,-460.9375,-973.14453125,-581.54296875,908.203125,0.0
1694471963.8585548,-916.015625,431.640625,-485.83984375,712.40234375,0.0
1694471963.862485,720.21484375,859.375,-471.6796875,-837.40234375,0.0
1694471963.8663893,-868.65234375,-573.2421875,-573.2421875,-1000.0,0.0
1694471963.8702934,-984.375,-1000.0,-592.28515625,156.25,0.0
1694471963.8741975,597.16796875,-3.90625,-496.09375,-824.70703125,0.0
1694471963.8781016,-972.65625,-978.515625,-454.58984375,-117.1875,0.0
1694471963.8820057,-419.921875,-210.44921875,-533.69140625,-1000.0,0.0
1694471963.88591,-1000.0,-1000.0,-576.171875,-204.1015625,0.0
1694471963.8898141,-38.57421875,-318.84765625,-525.87890625,-810.546875,0.0
1694471963.8937182,-781.73828125,-863.76953125,-381.34765625,237.3046875,0.0
1694471963.8976223,211.42578125,264.6484375,-429.6875,-1000.0,0.0
1694471963.9015267,-1000.0,-1000.0,-614.74609375,-356.93359375,0.0
1694471963.9054308,-271.97265625,-652.34375,-538.57421875,-840.8203125,0.0
1694471963.9093583,-803.7109375,875.9765625,-448.2421875,419.921875,0.0
1694471963.9132624,407.2265625,603.515625,-505.859375,-1000.0,0.0
1694471963.9171665,-1000.0,-914.0625,-587.890625,-799.8046875,0.0
1694471963.9210708,-531.73828125,-1000.0,-538.57421875,786.1328125,0.0
1694471963.924975,-976.5625,368.65234375,-438.4765625,909.1796875,0.0
1694471963.928879,881.34765625,986.328125,-441.40625,-613.76953125,0.0
1694471963.9327831,-668.9453125,-388.18359375,-555.17578125,-1000.0,0.0
1694471963.9366875,-1000.0,-1000.0,-548.33984375,119.62890625,0.0
1694471963.9405916,455.56640625,-90.33203125,-424.31640625,-794.43359375,0.0
1694471963.9444957,-792.48046875,-837.40234375,-461.42578125,10.7421875,0.0
1694471963.9483998,7.32421875,77.63671875,-562.5,-1000.0,0.0
1694471963.952304,-1000.0,-1000.0,-588.37890625,-240.234375,0.0
1694471963.9562325,-139.16015625,-380.37109375,-519.04296875,-811.03515625,0.0
1694471963.9601367,-778.3203125,-881.8359375,-472.65625,250.48828125,0.0
1694471963.9640408,219.23828125,341.796875,-517.578125,-1000.0,0.0
1694471963.967945,-1000.0,-1000.0,-588.37890625,-327.63671875,0.0
1694471963.9718492,-272.4609375,-702.63671875,-538.57421875,956.0546875,0.0
1694471963.9757533,-812.01171875,869.140625,-438.96484375,142.08984375,0.0
1694471963.9796574,493.65234375,652.34375,-486.328125,-1000.0,0.0
1694471963.9835618,-1000.0,-840.8203125,-533.69140625,-845.21484375,0.0
1694471963.9874659,-645.5078125,-1000.0,-521.484375,695.80078125,0.0
1694471963.99137,942.87109375,200.1953125,-500.0,990.234375,0.0
1694471963.995274,971.6796875,-981.93359375,-477.05078125,-473.14453125,0.0
1694471963.9991782,-490.72265625,-306.15234375,-570.3125,-1000.0,0.0
1694471964.0031042,-1000.0,-1000.0,-598.14453125,-22.94921875,0.0
1694471964.0070083,172.8515625,-203.61328125,-524.4140625,-796.38671875,0.0
1694471964.0109127,-767.578125,-861.81640625,-458.0078125,103.02734375,0.0
1694471964.0148168,47.36328125,74.21875,-514.6484375,-1000.0,0.0
1694471964.0187209,-1000.0,-1000.0,-598.14453125,-250.0,0.0
1694471964.022625,-158.69140625,-473.14453125,-516.11328125,-809.08203125,0.0
1694471964.0265293,-816.89453125,978.02734375,-424.31640625,272.94921875,0.0
1694471964.0304334,238.76953125,356.4453125,-464.35546875,-1000.0,0.0
1694471964.0343375,-1000.0,-1000.0,-584.47265625,-505.859375,0.0
1694471964.0382416,-365.234375,-908.203125,-561.03515625,-928.7109375,0.0
1694471964.042146,-851.5625,538.57421875,-473.14453125,671.38671875,0.0
1694471964.04605,562.5,714.84375,-480.95703125,-893.5546875,0.0
1694471964.0499735,-1000.0,-763.18359375,-594.23828125,-1000.0,0.0
1694471964.0538776,-826.171875,-1000.0,-591.30859375,426.7578125,0.0
1694471964.0577817,719.7265625,55.6640625,-496.58203125,-866.2109375,0.0
1694471964.061686,-904.296875,-944.82421875,-489.74609375,-246.58203125,0.0
1694471964.0655901,-313.4765625,-201.171875,-559.08203125,-1000.0,0.0
1694471964.0694942,-1000.0,-1000.0,-581.0546875,-97.65625,0.0
1694471964.0733984,44.43359375,-280.76171875,-420.8984375,-790.52734375,0.0
1694471964.0773027,-769.53125,-866.69921875,-363.76953125,206.0546875,0.0
1694471964.0812068,182.12890625,167.96875,-553.7109375,-1000.0,0.0
1694471964.085111,-1000.0,-1000.0,-595.703125,-268.5546875,0.0
1694471964.089015,-263.671875,-582.51953125,-522.94921875,-806.640625,0.0
1694471964.0929193,-800.29296875,948.2421875,-464.35546875,433.59375,0.0
1694471964.0968401,280.76171875,464.84375,-505.37109375,-1000.0,0.0
1694471964.1007442,-1000.0,-1000.0,-584.47265625,-540.52734375,0.0
1694471964.1046484,-429.19921875,-939.94140625,-547.36328125,-987.3046875,0.0
1694471964.1085527,-900.87890625,485.83984375,-476.5625,902.83203125,0.0
1694471964.1124568,718.75,874.0234375,-485.83984375,-643.06640625,0.0
1694471964.116361,-897.94921875,-569.3359375,-540.0390625,-1000.0,0.0
1694471964.120265,-886.23046875,-1000.0,-520.01953125,488.28125,0.0
1694471964.1241693,646.97265625,8.7890625,-474.609375,-791.9921875,0.0
1694471964.1280735,-834.9609375,-865.234375,-490.72265625,56.15234375,0.0
1694471964.1319776,-135.7421875,-25.390625,-544.921875,-1000.0,0.0
1694471964.1358817,-1000.0,-1000.0,-573.73046875,-140.625,0.0
1694471964.139786,-2.44140625,-300.78125,-524.4140625,-773.92578125,0.0
1694471964.1437182,-764.16015625,-846.19140625,-463.8671875,232.421875,0.0
1694471964.1476226,206.0546875,267.578125,-507.32421875,-1000.0,0.0
1694471964.1515267,-1000.0,-1000.0,-572.265625,-272.94921875,0.0
1694471964.1554308,-271.97265625,-611.328125,-543.9453125,-825.1953125,0.0
1694471964.159335,-802.24609375,925.29296875,-459.9609375,607.91015625,0.0
1694471964.1632392,396.97265625,576.66015625,-450.68359375,-1000.0,0.0
1694471964.1671433,-1000.0,-936.03515625,-561.5234375,-610.3515625,0.0
1694471964.1710474,-511.71875,-996.58203125,-575.68359375,941.89453125,0.0
1694471964.1749516,-960.9375,398.4375,-461.9140625,-941.89453125,0.0
1694471964.178856,854.98046875,968.75,-448.2421875,-320.3125,0.0
1694471964.18276,-691.89453125,-413.0859375,-575.68359375,-1000.0,0.0
1694471964.186664,-1000.0,-1000.0,-594.7265625,226.07421875,0.0
1694471964.1905978,439.453125,-95.703125,-495.60546875,-760.25390625,0.0
1694471964.1945019,-802.734375,-853.02734375,-467.28515625,159.1796875,0.0
1694471964.198406,-48.33984375,42.96875,-550.29296875,-1000.0,0.0
1694471964.20231,-1000.0,-1000.0,-594.23828125,-232.91015625,0.0
1694471964.2062144,-169.921875,-414.55078125,-504.39453125,-789.55078125,0.0
1694471964.2101185,-791.50390625,-911.1328125,-408.203125,264.6484375,0.0
1694471964.2140226,225.5859375,291.015625,-479.4921875,-1000.0,0.0
1694471964.2179267,-1000.0,-1000.0,-599.609375,-364.2578125,0.0
1694471964.221831,-270.5078125,-806.15234375,-508.30078125,-853.02734375,0.0
1694471964.2257352,-809.08203125,690.91796875,-392.578125,582.03125,0.0
1694471964.2296393,444.3359375,608.3984375,-494.140625,-992.67578125,0.0
1694471964.2335434,-1000.0,-885.25390625,-595.21484375,-885.25390625,0.0
1694471964.2374744,-682.12890625,-1000.0,-573.73046875,666.015625,0.0
1694471964.2413785,906.73828125,173.828125,-491.2109375,-938.96484375,0.0
1694471964.2452826,955.078125,965.33203125,-490.72265625,-370.60546875,0.0
1694471964.2491868,-527.83203125,-381.34765625,-580.078125,-1000.0,0.0
1694471964.253091,-1000.0,-1000.0,-582.51953125,15.625,0.0
1694471964.2569952,153.3203125,-224.12109375,-492.1875,-776.85546875,0.0
1694471964.2608993,-779.296875,-890.625,-469.7265625,175.29296875,0.0
1694471964.2648034,41.50390625,63.4765625,-541.015625,-1000.0,0.0
1694471964.2687078,-1000.0,-1000.0,-542.48046875,-260.25390625,0.0
1694471964.2726119,-243.65234375,-546.38671875,-486.81640625,-803.22265625,0.0
1694471964.276516,-807.12890625,970.703125,-485.3515625,269.53125,0.0
1694471964.28042,238.28125,348.6328125,-510.7421875,-1000.0,0.0
1694471964.2843485,-1000.0,-1000.0,-583.984375,-488.76953125,0.0
1694471964.2882526,-348.6328125,-889.16015625,-567.87109375,-934.08203125,0.0
1694471964.2921567,-843.75,566.40625,-477.05078125,724.12109375,0.0
1694471964.296061,546.875,710.44921875,-489.2578125,-861.328125,0.0
1694471964.2999651,-1000.0,-771.484375,-586.9140625,-977.05078125,0.0
1694471964.3038692,-774.90234375,-1000.0,-566.89453125,502.44140625,0.0
1694471964.3077734,778.3203125,75.1953125,-479.00390625,-812.5,0.0
1694471964.3116777,-916.015625,-945.3125,-428.22265625,-89.35546875,0.0
1694471964.3155818,-324.21875,-213.8671875,-497.55859375,-1000.0,0.0
1694471964.319486,-1000.0,-1000.0,-605.95703125,-43.9453125,0.0
1694471964.32339,74.21875,-254.8828125,-509.27734375,-767.578125,0.0
1694471964.3272943,-766.11328125,-853.515625,-454.1015625,210.44921875,0.0
1694471964.3312166,187.5,180.6640625,-531.73828125,-1000.0,0.0
1694471964.3351207,-1000.0,-1000.0,-600.09765625,-273.4375,0.0
1694471964.339025,-265.625,-541.015625,-536.1328125,-808.59375,0.0
1694471964.3429291,-797.36328125,991.2109375,-463.8671875,517.578125,0.0
1694471964.3468332,284.66796875,479.98046875,-496.58203125,-1000.0,0.0
1694471964.3507373,-1000.0,-1000.0,-549.31640625,-446.77734375,0.0
1694471964.3546417,-381.8359375,-901.85546875,-551.7578125,-992.67578125,0.0
1694471964.3585458,-884.27734375,546.38671875,-368.1640625,-939.453125,0.0
1694471964.36245,723.6328125,905.2734375,-357.421875,-357.91015625,0.0
1694471964.366354,-889.6484375,-535.64453125,-583.984375,-986.81640625,0.0
1694471964.3702583,-861.81640625,-1000.0,-580.56640625,557.6171875,0.0
1694471964.3741624,683.59375,41.015625,-483.88671875,-831.54296875,0.0
1694471964.3780892,-841.30859375,-859.375,-452.1484375,39.55078125,0.0
1694471964.3819933,-143.06640625,-15.13671875,-550.29296875,-1000.0,0.0
1694471964.3858976,-1000.0,-1000.0,-584.47265625,-53.7109375,0.0
1694471964.3898017,82.51953125,-228.515625,-494.62890625,-750.48828125,0.0
1694471964.3937058,-907.2265625,-986.328125,-464.84375,248.046875,0.0
1694471964.39761,-75.1953125,-22.4609375,-519.53125,-1000.0,0.0
1694471964.4015143,-1000.0,-1000.0,-555.17578125,-278.80859375,0.0
1694471964.4054184,-266.6015625,-639.16015625,-483.88671875,-826.171875,0.0
1694471964.4093225,-812.5,883.7890625,-460.44921875,643.5546875,0.0
1694471964.4132266,383.7890625,558.59375,-510.7421875,-1000.0,0.0
1694471964.417131,-1000.0,-953.61328125,-580.56640625,-544.921875,0.0
1694471964.421035,-520.5078125,-1000.0,-556.15234375,992.1875,0.0
1694471964.4249592,-956.0546875,386.23046875,-481.93359375,-963.37890625,0.0
1694471964.4288635,820.3125,916.9921875,-476.07421875,-335.44921875,0.0
1694471964.4327676,-717.28515625,-481.4453125,-568.359375,-1000.0,0.0
1694471964.4366717,-1000.0,-1000.0,-577.1484375,252.9296875,0.0
1694471964.440576,363.76953125,-121.09375,-474.12109375,-763.18359375,0.0
1694471964.4444802,-803.7109375,-887.20703125,-463.37890625,146.97265625,0.0
1694471964.4483843,-69.3359375,-11.23046875,-501.953125,-1000.0,0.0
1694471964.4522884,-1000.0,-1000.0,-544.43359375,-233.3984375,0.0
1694471964.4561927,-198.73046875,-456.54296875,-543.45703125,-792.48046875,0.0
1694471964.4600968,-802.24609375,-959.9609375,-475.09765625,241.2109375,0.0
1694471964.464001,231.4453125,250.48828125,-520.5078125,-1000.0,0.0
1694471964.467905,-1000.0,-1000.0,-613.76953125,-378.41796875,0.0
1694471964.4718268,-291.015625,-842.28515625,-574.21875,-863.28125,0.0
1694471964.4757311,-814.94140625,636.23046875,-471.19140625,593.75,0.0
1694471964.4796352,410.64453125,562.01171875,-487.79296875,-998.53515625,0.0
1694471964.4835393,-1000.0,-925.78125,-600.09765625,-854.98046875,0.0
1694471964.4874437,-713.37890625,-1000.0,-580.56640625,668.9453125,0.0
1694471964.4913478,883.30078125,154.296875,-455.56640625,-872.0703125,0.0
1694471964.495252,919.921875,939.453125,-409.66796875,-234.375,0.0
1694471964.499156,-590.8203125,-418.9453125,-528.80859375,-1000.0,0.0
1694471964.5030603,-1000.0,-1000.0,-610.83984375,51.7578125,0.0
1694471964.5069644,147.94921875,-220.703125,-503.90625,-765.13671875,0.0
1694471964.5108685,-781.73828125,-893.5546875,-454.58984375,167.96875,0.0
1694471964.5147727,40.0390625,57.6171875,-567.87109375,-1000.0,0.0
1694471964.518706,-1000.0,-1000.0,-615.72265625,-263.18359375,0.0
1694471964.5226102,-243.65234375,-533.69140625,-537.109375,-800.29296875,0.0
1694471964.5265143,-806.15234375,981.93359375,-479.98046875,315.4296875,0.0
1694471964.5304184,237.3046875,350.5859375,-538.57421875,-1000.0,0.0
1694471964.5343227,-1000.0,-1000.0,-604.4921875,-417.96875,0.0
1694471964.5382268,-333.49609375,-870.60546875,-513.671875,-926.7578125,0.0
1694471964.542131,-840.33203125,593.26171875,-441.89453125,830.078125,0.0
1694471964.546035,566.89453125,741.69921875,-504.8828125,-770.99609375,0.0
1694471964.5499394,-1000.0,-753.90625,-567.3828125,-841.796875,0.0
1694471964.5538435,-729.00390625,-1000.0,-546.875,694.3359375,0.0
1694471964.5577476,826.66015625,122.0703125,-491.2109375,-811.03515625,0.0
1694471964.561652,-907.71484375,-906.73828125,-479.98046875,-5.37109375,0.0
1694471964.5655828,-301.7578125,-144.53125,-544.921875,-1000.0,0.0
1694471964.5694869,-1000.0,-1000.0,-571.77734375,96.19140625,0.0
1694471964.573391,124.51171875,-228.515625,-506.34765625,-741.69921875,0.0
1694471964.5772953,-759.27734375,-832.51953125,-465.8203125,196.77734375,0.0
1694471964.5811994,187.98828125,199.21875,-509.27734375,-1000.0,0.0
1694471964.5851035,-1000.0,-1000.0,-536.1328125,-247.0703125,0.0
1694471964.5890076,-267.08984375,-507.8125,-487.3046875,-816.89453125,0.0
1694471964.592912,-796.38671875,-973.6328125,-439.94140625,641.6015625,0.0
1694471964.596816,286.62109375,483.3984375,-453.125,-1000.0,0.0
1694471964.6007202,-1000.0,-1000.0,-525.390625,-360.83984375,0.0
1694471964.6046243,-379.39453125,-894.04296875,-559.08203125,-953.61328125,0.0
1694471964.6085286,-880.859375,564.453125,-457.51953125,-920.41015625,0.0
1694471964.6124568,714.35546875,895.99609375,-456.54296875,-301.26953125,0.0
1694471964.6163611,-894.53125,-546.875,-577.63671875,-849.609375,0.0
1694471964.6202652,-872.0703125,-1000.0,-586.42578125,693.84765625,0.0
1694471964.6241693,675.29296875,44.43359375,-486.81640625,-788.0859375,0.0
1694471964.6280737,-848.14453125,-872.0703125,-440.91796875,139.6484375,0.0
1694471964.6319778,-169.43359375,-50.78125,-521.484375,-1000.0,0.0
1694471964.635882,-1000.0,-1000.0,-589.35546875,24.4140625,0.0
1694471964.639786,-16.11328125,-312.98828125,-539.0625,-736.81640625,0.0
1694471964.6436903,-769.04296875,-861.81640625,-376.46484375,291.9921875,0.0
1694471964.6475945,208.49609375,212.40234375,-444.3359375,-1000.0,0.0
1694471964.6514986,-1000.0,-1000.0,-620.60546875,-290.0390625,0.0
1694471964.6554027,-268.06640625,-710.9375,-540.52734375,-817.3828125,0.0
1694471964.659332,-803.7109375,810.546875,-484.375,601.5625,0.0
1694471964.6632361,319.82421875,492.67578125,-521.97265625,-1000.0,0.0
1694471964.6671402,-1000.0,-994.140625,-585.44921875,-590.8203125,0.0
1694471964.6710446,-589.35546875,-1000.0,-546.875,968.75,0.0
1694471964.6749487,-980.46875,289.0625,-458.984375,-976.07421875,0.0
1694471964.6788528,749.51171875,847.16796875,-465.33203125,-385.25390625,0.0
1694471964.682757,-808.59375,-563.96484375,-569.3359375,-1000.0,0.0
1694471964.6866612,-1000.0,-1000.0,-544.921875,259.27734375,0.0
1694471964.6905653,297.36328125,-151.85546875,-444.82421875,-774.4140625,0.0
1694471964.6944695,-812.98828125,-924.31640625,-483.88671875,75.68359375,0.0
1694471964.6983738,-122.55859375,-59.08203125,-565.91796875,-1000.0,0.0
1694471964.702278,-1000.0,-1000.0,-597.65625,-237.3046875,0.0
1694471964.706205,-207.51953125,-488.76953125,-527.83203125,-801.26953125,0.0
1694471964.710109,-810.546875,999.0234375,-482.91015625,236.81640625,0.0
1694471964.714013,234.86328125,234.86328125,-532.2265625,-1000.0,0.0
1694471964.7179174,-1000.0,-1000.0,-600.09765625,-374.0234375,0.0
1694471964.7218215,-305.6640625,-854.98046875,-565.91796875,-850.5859375,0.0
1694471964.7257257,-819.3359375,612.3046875,-457.51953125,490.72265625,0.0
1694471964.7296298,402.34375,548.828125,-487.79296875,-1000.0,0.0
1694471964.733534,-1000.0,-939.453125,-542.96875,-851.5625,0.0
1694471964.7374382,-700.1953125,-1000.0,-528.3203125,743.65234375,0.0
1694471964.7413423,896.97265625,164.0625,-508.30078125,911.1328125,0.0
1694471964.7452464,904.296875,946.77734375,-485.3515625,-587.890625,0.0
1694471964.7491508,-610.83984375,-412.59765625,-568.359375,-1000.0,0.0
1694471964.7530713,-1000.0,-1000.0,-598.6328125,-19.53125,0.0
1694471964.7569754,153.3203125,-199.70703125,-508.7890625,-802.24609375,0.0
1694471964.7608795,-774.90234375,-876.953125,-457.51953125,82.51953125,0.0
1694471964.7647839,15.625,71.77734375,-542.96875,-1000.0,0.0
1694471964.768688,-1000.0,-1000.0,-587.40234375,-246.09375,0.0
1694471964.772592,-154.78515625,-495.1171875,-495.60546875,-812.5,0.0
1694471964.7764964,-817.87109375,-974.609375,-426.26953125,254.39453125,0.0
1694471964.7804005,237.79296875,357.91015625,-452.1484375,-1000.0,0.0
1694471964.7843046,-1000.0,-1000.0,-583.0078125,-540.0390625,0.0
1694471964.7882087,-334.47265625,-854.98046875,-575.68359375,-945.3125,0.0
1694471964.792113,-839.35546875,620.1171875,-461.9140625,651.3671875,0.0
1694471964.7960172,553.22265625,742.67578125,-476.5625,-915.0390625,0.0
1694471964.7999387,-1000.0,-750.48828125,-595.21484375,-1000.0,0.0
1694471964.8038428,-747.55859375,-1000.0,-591.796875,438.4765625,0.0
1694471964.8077471,815.4296875,125.9765625,-473.14453125,-909.66796875,0.0
1694471964.8116512,-924.8046875,-921.38671875,-475.5859375,-395.01953125,0.0
1694471964.8155553,-331.54296875,-176.26953125,-549.8046875,-1000.0,0.0
1694471964.8194597,-1000.0,-1000.0,-565.91796875,68.359375,0.0
1694471964.8233638,86.42578125,-232.91015625,-420.8984375,-822.75390625,0.0
1694471964.827268,-766.11328125,-845.21484375,-360.3515625,166.9921875,0.0
1694471964.831172,169.921875,165.0390625,-557.12890625,-1000.0,0.0
1694471964.8350763,-1000.0,-1000.0,-591.30859375,-270.5078125,0.0
1694471964.8389804,-260.25390625,-565.4296875,-494.62890625,-814.94140625,0.0
1694471964.8428845,-802.24609375,969.7265625,-460.9375,259.765625,0.0
1694471964.8468044,239.74609375,426.7578125,-518.5546875,-1000.0,0.0
1694471964.8507085,-1000.0,-1000.0,-599.12109375,-676.7578125,0.0
1694471964.8546126,-440.91796875,-964.35546875,-558.59375,972.65625,0.0
1694471964.858517,-886.23046875,477.5390625,-472.16796875,517.08984375,0.0
1694471964.862421,611.81640625,745.1171875,-496.09375,-991.2109375,0.0
1694471964.8663251,-972.65625,-722.16796875,-546.38671875,-1000.0,0.0
1694471964.8702292,-969.23828125,-1000.0,-530.76171875,260.25390625,0.0
1694471964.8741336,523.92578125,-48.33984375,-476.07421875,979.00390625,0.0
1694471964.8780377,-857.91015625,-945.3125,-480.95703125,-509.765625,0.0
1694471964.8819418,-236.328125,-159.66796875,-548.33984375,-1000.0,0.0
1694471964.8858461,-1000.0,-1000.0,-575.68359375,-194.82421875,0.0
1694471964.8897502,-90.33203125,-369.140625,-525.87890625,-862.79296875,0.0
1694471964.893681,-787.59765625,-919.921875,-466.796875,39.55078125,0.0
1694471964.8975852,209.47265625,173.33984375,-517.578125,-1000.0,0.0
1694471964.9014893,-1000.0,-1000.0,-598.14453125,-416.015625,0.0
1694471964.9053936,-263.18359375,-737.3046875,-561.5234375,-890.625,0.0
1694471964.9092977,-805.6640625,769.53125,-464.84375,244.140625,0.0
1694471964.9132018,287.59765625,450.1953125,-467.7734375,-1000.0,0.0
1694471964.917106,-1000.0,-1000.0,-577.1484375,-965.8203125,0.0
1694471964.9210103,-613.28125,-1000.0,-591.796875,603.02734375,0.0
1694471964.9249144,-992.67578125,244.140625,-477.5390625,490.72265625,0.0
1694471964.9288185,727.5390625,805.6640625,-453.61328125,-1000.0,0.0
1694471964.9327228,-845.703125,-611.81640625,-589.35546875,-1000.0,0.0
1694471964.936627,-1000.0,-1000.0,-615.234375,8.30078125,0.0
1694471964.940555,304.19921875,-144.04296875,-507.32421875,943.84765625,0.0
1694471964.9444592,-814.453125,-923.33984375,-470.21484375,-496.58203125,0.0
1694471964.9483633,-126.953125,-61.03515625,-553.7109375,-1000.0,0.0
1694471964.9522676,-1000.0,-1000.0,-600.5859375,-204.58984375,0.0
1694471964.9561718,-203.61328125,-460.9375,-505.37109375,-849.609375,0.0
1694471964.9600759,-807.12890625,-967.7734375,-426.7578125,156.25,0.0
1694471964.9639802,232.421875,260.7421875,-481.4453125,-1000.0,0.0
1694471964.9678843,-1000.0,-1000.0,-582.51953125,-522.94921875,0.0
1694471964.9717884,-268.5546875,-783.69140625,-517.578125,-925.78125,0.0
1694471964.9756925,-806.640625,711.9140625,-380.37109375,291.9921875,0.0
1694471964.9795969,414.0625,599.609375,-479.00390625,-1000.0,0.0
1694471964.983501,-1000.0,-903.3203125,-606.4453125,-1000.0,0.0
1694471964.9874268,-623.046875,-1000.0,-578.125,455.078125,0.0
1694471964.9913309,949.21875,211.9140625,-482.91015625,686.5234375,0.0
1694471964.9952352,955.56640625,-994.140625,-483.88671875,-875.0,0.0
1694471964.9991393,-567.3828125,-365.72265625,-576.171875,-1000.0,0.0
1694471965.0030434,-1000.0,-1000.0,-575.1953125,-76.66015625,0.0
1694471965.0069478,348.14453125,-68.359375,-476.07421875,-956.0546875,0.0
1694471965.0108519,-787.59765625,-851.07421875,-447.75390625,-263.18359375,0.0
1694471965.014756,41.50390625,116.69921875,-537.59765625,-1000.0,0.0
1694471965.01866,-1000.0,-1000.0,-527.34375,-217.7734375,0.0
1694471965.0225644,-222.16796875,-432.6171875,-462.890625,-834.9609375,0.0
1694471965.0264685,-797.8515625,-914.0625,-475.09765625,222.65625,0.0
1694471965.0303726,231.4453125,387.6953125,-503.90625,-1000.0,0.0
1694471965.0342994,-1000.0,-1000.0,-579.58984375,-649.4140625,0.0
1694471965.0382037,-298.33984375,-806.15234375,-553.22265625,991.69921875,0.0
1694471965.0421078,-828.125,694.3359375,-465.8203125,344.7265625,0.0
1694471965.046012,556.15234375,760.7421875,-463.37890625,-1000.0,0.0
1694471965.049916,-1000.0,-724.12109375,-541.9921875,-1000.0,0.0
1694471965.0538204,-745.1171875,-1000.0,-550.29296875,304.6875,0.0
1694471965.0577245,820.80078125,129.8828125,-473.6328125,794.43359375,0.0
1694471965.0616286,-924.31640625,-925.78125,-435.05859375,-755.859375,0.0
1694471965.065533,-330.078125,-187.01171875,-513.18359375,-1000.0,0.0
1694471965.069437,-1000.0,-1000.0,-588.37890625,-167.96875,0.0
1694471965.0733411,93.75,-244.140625,-497.0703125,-923.828125,0.0
1694471965.0772452,-766.6015625,-855.46875,-441.89453125,-148.4375,0.0
1694471965.0811696,154.78515625,143.5546875,-533.69140625,-1000.0,0.0
1694471965.0850737,-1000.0,-1000.0,-615.72265625,-375.0,0.0
1694471965.088978,-257.8125,-596.19140625,-540.52734375,-895.99609375,0.0
1694471965.0928822,-804.19921875,932.6171875,-464.35546875,204.1015625,0.0
1694471965.0967863,241.2109375,414.0625,-508.7890625,-1000.0,0.0
1694471965.1006906,-1000.0,-1000.0,-571.77734375,-909.1796875,0.0
1694471965.1045947,-472.16796875,-973.6328125,-559.5703125,678.22265625,0.0
1694471965.1084988,-899.4140625,439.94140625,-393.06640625,384.765625,0.0
1694471965.112403,603.515625,761.23046875,-387.20703125,-1000.0,0.0
1694471965.1163073,-985.3515625,-688.96484375,-602.05078125,-1000.0,0.0
1694471965.1202114,-963.8671875,-1000.0,-596.6796875,81.54296875,0.0
1694471965.1241155,525.390625,-48.828125,-490.72265625,684.5703125,0.0
1694471965.1280375,-858.88671875,-946.77734375,-464.35546875,-820.80078125,0.0
1694471965.1319416,-238.76953125,-165.0390625,-562.5,-1000.0,0.0
1694471965.1358457,-1000.0,-1000.0,-607.91015625,-170.8984375,0.0
1694471965.13975,-82.03125,-372.0703125,-522.4609375,-933.59375,0.0
1694471965.143654,-785.64453125,-922.8515625,-468.75,-159.66796875,0.0
1694471965.1475582,211.9140625,179.6875,-523.4375,-1000.0,0.0
1694471965.1514623,-1000.0,-1000.0,-554.6875,-462.890625,0.0
1694471965.1553667,-265.625,-715.8203125,-489.2578125,-933.59375,0.0
1694471965.1592708,-802.734375,794.43359375,-476.5625,246.58203125,0.0
1694471965.1631749,312.5,500.48828125,-520.99609375,-1000.0,0.0
1694471965.1670792,-1000.0,-1000.0,-587.40234375,-978.02734375,0.0
1694471965.1709833,-547.36328125,-1000.0,-556.15234375,576.171875,0.0
1694471965.1749024,-972.65625,334.47265625,-484.375,521.484375,0.0
1694471965.1788068,797.8515625,903.80859375,-488.28125,-993.65234375,0.0
1694471965.182711,-780.2734375,-505.37109375,-558.59375,-1000.0,0.0
1694471965.186615,-1000.0,-1000.0,-581.0546875,37.109375,0.0
1694471965.190519,433.10546875,-90.33203125,-495.60546875,-996.09375,0.0
1694471965.1944234,-804.19921875,-866.69921875,-449.21875,-409.1796875,0.0
1694471965.1983275,-66.89453125,16.6015625,-487.3046875,-1000.0,0.0
1694471965.2022316,-1000.0,-1000.0,-539.55078125,-213.8671875,0.0
1694471965.206136,-128.90625,-375.0,-535.15625,-836.9140625,0.0
1694471965.21004,-783.203125,-883.30078125,-469.23828125,218.75,0.0
1694471965.2139442,220.21484375,307.6171875,-519.04296875,-1000.0,0.0
1694471965.2178483,-1000.0,-1000.0,-599.12109375,-471.19140625,0.0
1694471965.2217689,-271.97265625,-708.0078125,-550.78125,-893.06640625,0.0
1694471965.2256732,-809.08203125,810.546875,-460.44921875,443.359375,0.0
1694471965.2295773,478.515625,676.26953125,-483.88671875,-1000.0,0.0
1694471965.2334814,-1000.0,-845.21484375,-586.9140625,-917.96875,0.0
1694471965.2373857,-581.0546875,-1000.0,-565.4296875,565.91796875,0.0
1694471965.2412899,974.609375,311.5234375,-433.10546875,-926.7578125,0.0
1694471965.245194,980.46875,-941.40625,-387.6953125,-375.0,0.0
1694471965.249098,-510.7421875,-248.53515625,-515.625,-1000.0,0.0
1694471965.2530024,-1000.0,-1000.0,-584.47265625,32.2265625,0.0
1694471965.2569065,360.83984375,-114.74609375,-467.7734375,-778.80859375,0.0
1694471965.2608106,-777.83203125,-818.84765625,-413.0859375,136.23046875,0.0
1694471965.264715,80.078125,135.25390625,-547.8515625,-1000.0,0.0
1694471965.268633,-1000.0,-1000.0,-601.07421875,-255.37109375,0.0
1694471965.272537,-212.890625,-427.734375,-518.5546875,-806.640625,0.0
1694471965.276441,-790.52734375,-906.25,-457.03125,268.06640625,0.0
1694471965.2803452,228.515625,382.8125,-525.87890625,-1000.0,0.0
1694471965.2842495,-1000.0,-1000.0,-594.23828125,-516.11328125,0.0
1694471965.2881536,-293.9453125,-829.58984375,-505.37109375,-929.19921875,0.0
1694471965.2920578,-826.171875,667.48046875,-442.87109375,652.34375,0.0
1694471965.295962,555.6640625,747.0703125,-495.1171875,-912.59765625,0.0
1694471965.2998662,-1000.0,-740.72265625,-571.77734375,-1000.0,0.0
1694471965.3037703,-738.76953125,-1000.0,-557.12890625,445.3125,0.0
1694471965.3076744,828.125,120.60546875,-481.4453125,-930.17578125,0.0
1694471965.3115788,-928.7109375,-929.19921875,-484.86328125,-371.58203125,0.0
1694471965.315508,-337.890625,-190.91796875,-559.08203125,-1000.0,0.0
1694471965.319412,-1000.0,-1000.0,-583.984375,-96.6796875,0.0
1694471965.323316,103.02734375,-245.1171875,-507.32421875,-802.24609375,0.0
1694471965.3272204,-765.625,-857.421875,-473.14453125,162.109375,0.0
1694471965.3311245,158.203125,138.671875,-522.94921875,-1000.0,0.0
1694471965.3350286,-1000.0,-1000.0,-566.40625,-266.11328125,0.0
1694471965.338933,-258.7890625,-607.421875,-523.4375,-812.5,0.0
1694471965.342837,-803.22265625,918.9453125,-451.66015625,290.0390625,0.0
1694471965.3467412,239.74609375,414.55078125,-472.65625,-1000.0,0.0
1694471965.3506455,-1000.0,-1000.0,-559.08203125,-650.87890625,0.0
1694471965.3545496,-435.546875,-963.8671875,-571.2890625,965.33203125,0.0
1694471965.3584538,-890.625,451.171875,-468.26171875,720.703125,0.0
1694471965.3623803,638.671875,774.90234375,-477.05078125,-834.47265625,0.0
1694471965.3662846,-962.890625,-678.22265625,-575.68359375,-1000.0,0.0
1694471965.3701887,-920.8984375,-1000.0,-601.07421875,231.4453125,0.0
1694471965.3740928,589.84375,-20.99609375,-503.41796875,-810.546875,0.0
1694471965.377997,-845.21484375,-915.0390625,-460.44921875,-91.796875,0.0
1694471965.3819013,-202.1484375,-121.09375,-534.1796875,-1000.0,0.0
1694471965.3858054,-1000.0,-1000.0,-583.984375,-179.19921875,0.0
1694471965.3897095,-24.4140625,-319.82421875,-537.59765625,-798.828125,0.0
1694471965.3936138,-773.4375,-871.58203125,-380.37109375,229.4921875,0.0
1694471965.397518,213.8671875,221.6796875,-432.12890625,-1000.0,0.0
1694471965.401422,-1000.0,-1000.0,-618.65234375,-297.8515625,0.0
1694471965.4053264,-232.91015625,-623.046875,-549.31640625,-822.75390625,0.0
1694471965.4092505,-906.25,786.1328125,-474.12109375,517.578125,0.0
1694471965.4131548,172.36328125,383.30078125,-502.9296875,-1000.0,0.0
1694471965.417059,-1000.0,-967.28515625,-587.40234375,-626.953125,0.0
1694471965.420963,-495.60546875,-988.76953125,-575.1953125,924.31640625,0.0
1694471965.4248672,-964.35546875,372.55859375,-458.0078125,-978.515625,0.0
1694471965.4287715,848.6328125,932.6171875,-439.94140625,-416.9921875,0.0
1694471965.4326756,-724.12109375,-442.87109375,-551.26953125,-1000.0,0.0
1694471965.4365797,-989.74609375,-1000.0,-557.12890625,325.1953125,0.0
1694471965.440484,521.484375,-63.4765625,-436.5234375,-759.765625,0.0
1694471965.4443882,-806.15234375,-837.890625,-445.3125,157.2265625,0.0
1694471965.4482923,-53.22265625,59.5703125,-554.6875,-1000.0,0.0
1694471965.4521966,-1000.0,-1000.0,-583.49609375,-155.76171875,0.0
1694471965.456122,-75.68359375,-330.56640625,-504.39453125,-766.6015625,0.0
1694471965.460026,-770.5078125,-851.5625,-466.30859375,335.44921875,0.0
1694471965.4639301,212.890625,332.51953125,-513.671875,-1000.0,0.0
1694471965.4678345,-1000.0,-1000.0,-565.4296875,-274.4140625,0.0
1694471965.4717386,-273.4375,-676.7578125,-514.16015625,-871.09375,0.0
1694471965.4756427,-809.5703125,852.5390625,-415.52734375,851.07421875,0.0
1694471965.479547,486.81640625,678.22265625,-467.7734375,-762.6953125,0.0
1694471965.4834511,-1000.0,-831.0546875,-546.875,-529.78515625,0.0
1694471965.4873552,-570.80078125,-1000.0,-517.578125,968.26171875,0.0
1694471965.4912593,982.91015625,308.10546875,-491.2109375,-860.83984375,0.0
1694471965.4951637,975.09765625,-958.49609375,-477.05078125,-34.66796875,0.0
1694471965.4990678,-504.39453125,-276.3671875,-558.59375,-1000.0,0.0
1694471965.5029907,-1000.0,-1000.0,-601.07421875,311.03515625,0.0
1694471965.5068948,334.47265625,-142.578125,-512.20703125,-744.140625,0.0
1694471965.5107992,-778.80859375,-833.0078125,-452.1484375,178.7109375,0.0
1694471965.5147033,56.15234375,114.2578125,-532.71484375,-1000.0,0.0
1694471965.5186074,-1000.0,-1000.0,-591.30859375,-205.56640625,0.0
1694471965.5225115,-218.26171875,-450.1953125,-514.16015625,-786.1328125,0.0
1694471965.5264158,-795.8984375,-926.26953125,-413.57421875,507.8125,0.0
1694471965.53032,231.4453125,354.98046875,-426.7578125,-1000.0,0.0
1694471965.534224,-1000.0,-1000.0,-576.171875,-335.44921875,0.0
1694471965.5381284,-314.94140625,-851.5625,-572.75390625,-901.3671875,0.0
1694471965.5420325,-830.56640625,634.765625,-459.47265625,936.03515625,0.0
1694471965.5459366,531.25,707.51953125,-474.609375,-598.14453125,0.0
1694471965.5498574,-1000.0,-776.85546875,-588.8671875,-801.7578125,0.0
1694471965.5537615,-754.39453125,-1000.0,-584.47265625,764.16015625,0.0
1694471965.5576656,816.40625,96.19140625,-486.81640625,-817.87109375,0.0
1694471965.5615697,-951.171875,-963.8671875,-482.421875,17.08984375,0.0
1694471965.565474,-380.37109375,-247.55859375,-568.84765625,-1000.0,0.0
1694471965.5693781,-1000.0,-1000.0,-596.6796875,94.23828125,0.0
1694471965.5732822,81.54296875,-270.01953125,-442.3828125,-741.69921875,0.0
1694471965.5771866,-770.01953125,-873.046875,-388.671875,192.87109375,0.0
1694471965.5810907,155.2734375,138.18359375,-557.6171875,-1000.0,0.0
1694471965.5849948,-1000.0,-1000.0,-600.09765625,-266.11328125,0.0
1694471965.5888991,-257.8125,-585.44921875,-518.06640625,-806.640625,0.0
1694471965.5928032,-802.734375,941.89453125,-461.9140625,542.48046875,0.0
1694471965.596721,239.74609375,425.78125,-517.578125,-1000.0,0.0
1694471965.6006253,-1000.0,-1000.0,-583.0078125,-394.04296875,0.0
1694471965.6045294,-422.36328125,-946.2890625,-544.43359375,-959.47265625,0.0
1694471965.6084335,-888.671875,478.515625,-482.91015625,-957.51953125,0.0
1694471965.6123378,653.80859375,810.546875,-480.95703125,-421.875,0.0
1694471965.616242,-960.9375,-645.5078125,-546.38671875,-843.75,0.0
1694471965.620146,-884.765625,-1000.0,-525.390625,708.49609375,0.0
1694471965.6240504,640.625,0.0,-471.6796875,-797.36328125,0.0
1694471965.6279545,-846.19140625,-893.5546875,-488.76953125,135.25390625,0.0
1694471965.6318586,-184.5703125,-84.47265625,-537.109375,-1000.0,0.0
1694471965.635763,-1000.0,-1000.0,-571.2890625,-4.8828125,0.0
1694471965.639667,-7.8125,-309.08203125,-529.78515625,-740.72265625,0.0
1694471965.643586,-769.04296875,-860.3515625,-458.984375,270.5078125,0.0
1694471965.64749,207.51953125,229.98046875,-515.625,-1000.0,0.0
1694471965.6513941,-1000.0,-1000.0,-597.16796875,-280.2734375,0.0
1694471965.6552982,-270.5078125,-618.65234375,-542.48046875,-835.44921875,0.0
1694471965.6592026,-801.26953125,912.59765625,-453.61328125,699.21875,0.0
1694471965.6631067,362.3046875,544.43359375,-459.47265625,-944.3359375,0.0
1694471965.6670108,-1000.0,-968.26171875,-566.40625,-476.5625,0.0
1694471965.6709151,-503.90625,-992.67578125,-569.3359375,998.046875,0.0
1694471965.6748192,-955.56640625,405.76171875,-483.88671875,-897.4609375,0.0
1694471965.6787233,834.47265625,939.453125,-420.41015625,-224.12109375,0.0
1694471965.6826277,-739.74609375,-464.84375,-512.6953125,-1000.0,0.0
1694471965.6865318,-996.09375,-1000.0,-605.46875,464.35546875,0.0
1694471965.6904616,509.765625,-56.640625,-482.91015625,-764.6484375,0.0
1694471965.694366,-808.10546875,-843.75,-448.73046875,168.45703125,0.0
1694471965.69827,-56.15234375,47.8515625,-551.26953125,-1000.0,0.0
1694471965.7021742,-1000.0,-1000.0,-584.47265625,-152.83203125,0.0
1694471965.7060785,-105.95703125,-365.234375,-497.55859375,-764.6484375,0.0
1694471965.7099826,-776.3671875,-873.53515625,-434.08203125,333.49609375,0.0
1694471965.7138867,216.796875,294.43359375,-503.90625,-1000.0,0.0
1694471965.7177908,-1000.0,-1000.0,-586.42578125,-295.41015625,0.0
1694471965.7216952,-271.484375,-737.3046875,-515.13671875,-837.890625,0.0
1694471965.7255993,-808.10546875,779.78515625,-409.66796875,687.98828125,0.0
1694471965.7295034,437.98828125,619.62890625,-500.0,-927.734375,0.0
1694471965.7334077,-1000.0,-880.859375,-605.46875,-722.16796875,0.0
1694471965.7373354,-626.953125,-1000.0,-563.96484375,846.6796875,0.0
1694471965.7412398,961.42578125,234.375,-465.33203125,-895.01953125,0.0
1694471965.745144,926.7578125,982.91015625,-481.4453125,-230.95703125,0.0
1694471965.749048,-570.80078125,-368.65234375,-572.75390625,-1000.0,0.0
1694471965.7529523,-1000.0,-1000.0,-569.82421875,107.421875,0.0
1694471965.7568564,234.86328125,-178.7109375,-476.5625,-760.7421875,0.0
1694471965.7607605,-781.73828125,-871.09375,-441.40625,173.828125,0.0
1694471965.764665,24.4140625,61.03515625,-537.109375,-1000.0,0.0
1694471965.768569,-1000.0,-1000.0,-553.22265625,-262.6953125,0.0
1694471965.772473,-242.67578125,-529.296875,-479.4921875,-801.7578125,0.0
1694471965.7763774,-807.12890625,987.3046875,-491.69921875,270.5078125,0.0
1694471965.7802815,237.3046875,326.66015625,-522.94921875,-1000.0,0.0
1694471965.7842069,-1000.0,-1000.0,-596.6796875,-473.6328125,0.0
1694471965.788111,-328.125,-883.30078125,-567.3828125,-903.80859375,0.0
1694471965.792015,-832.03125,583.49609375,-477.5390625,620.1171875,0.0
1694471965.7959194,498.046875,658.203125,-497.0703125,-942.87109375,0.0
1694471965.7998235,-1000.0,-821.2890625,-583.0078125,-1000.0,0.0
1694471965.8037276,-826.171875,-1000.0,-554.6875,479.00390625,0.0
1694471965.807632,735.83984375,58.59375,-472.16796875,-875.0,0.0
1694471965.811536,-967.7734375,-985.83984375,-444.3359375,-256.34765625,0.0
1694471965.8154402,-429.6875,-284.66796875,-500.0,-1000.0,0.0
1694471965.8193443,-1000.0,-1000.0,-591.796875,-80.078125,0.0
1694471965.8232486,50.29296875,-273.92578125,-527.34375,-788.57421875,0.0
1694471965.8271527,-778.3203125,-886.71875,-463.37890625,186.5234375,0.0
1694471965.8310757,128.41796875,119.62890625,-525.87890625,-1000.0,0.0
1694471965.83498,-1000.0,-1000.0,-601.5625,-265.13671875,0.0
1694471965.838884,-253.41796875,-575.1953125,-548.33984375,-799.31640625,0.0
1694471965.8427882,-805.6640625,949.21875,-453.61328125,332.51953125,0.0
1694471965.8466926,240.72265625,419.43359375,-487.79296875,-1000.0,0.0
1694471965.8505967,-1000.0,-1000.0,-559.5703125,-491.69921875,0.0
1694471965.8545008,-437.5,-952.63671875,-563.96484375,989.2578125,0.0
1694471965.858405,-890.625,469.7265625,-406.25,835.44921875,0.0
1694471965.8623092,635.25390625,802.24609375,-381.8359375,-684.08203125,0.0
1694471965.8662133,-978.515625,-656.25,-598.6328125,-1000.0,0.0
1694471965.8701177,-893.5546875,-1000.0,-587.40234375,285.64453125,0.0
1694471965.8740218,624.0234375,0.48828125,-462.890625,-810.546875,0.0
1694471965.877946,-845.703125,-899.4140625,-466.796875,-94.23828125,0.0
1694471965.88185,-193.84765625,-95.21484375,-579.1015625,-1000.0,0.0
1694471965.885754,-1000.0,-1000.0,-592.7734375,-195.80078125,0.0
1694471965.8896585,-4.8828125,-300.78125,-501.46484375,-804.19921875,0.0
1694471965.8935626,-769.04296875,-856.4453125,-454.1015625,224.12109375,0.0
1694471965.8974667,207.51953125,223.6328125,-503.90625,-1000.0,0.0
1694471965.901371,-1000.0,-1000.0,-545.41015625,-297.36328125,0.0
1694471965.905275,-269.53125,-635.25390625,-484.375,-818.84765625,0.0
1694471965.9091792,-801.26953125,897.94921875,-466.796875,390.13671875,0.0
1694471965.9130836,345.703125,538.0859375,-521.97265625,-1000.0,0.0
1694471965.9169877,-1000.0,-974.609375,-585.44921875,-697.75390625,0.0
1694471965.9208918,-509.765625,-995.1171875,-552.734375,924.8046875,0.0
1694471965.924813,-957.03125,402.34375,-491.2109375,800.78125,0.0
1694471965.9287171,821.2890625,924.31640625,-490.72265625,-711.42578125,0.0
1694471965.9326215,-745.1171875,-482.421875,-568.84765625,-1000.0,0.0
1694471965.9365256,-1000.0,-1000.0,-605.95703125,90.33203125,0.0
1694471965.9404297,463.37890625,-75.1953125,-507.8125,-820.3125,0.0
1694471965.944334,-810.05859375,-866.69921875,-452.63671875,-72.265625,0.0
1694471965.9482381,-75.68359375,5.859375,-490.234375,-1000.0,0.0
1694471965.9521422,-1000.0,-1000.0,-541.015625,-230.46875,0.0
1694471965.9560466,-156.73828125,-395.99609375,-540.52734375,-821.2890625,0.0
1694471965.9599507,-790.52734375,-902.83203125,-467.7734375,229.00390625,0.0
1694471965.9638548,224.12109375,270.99609375,-511.23046875,-1000.0,0.0
1694471965.967759,-1000.0,-1000.0,-599.12109375,-474.12109375,0.0
1694471965.9716778,-269.53125,-775.390625,-561.5234375,-888.671875,0.0
1694471965.975582,-806.640625,734.86328125,-466.30859375,334.9609375,0.0
1694471965.979486,411.1328125,580.56640625,-486.328125,-1000.0,0.0
1694471965.9833903,-1000.0,-912.59765625,-603.02734375,-1000.0,0.0
1694471965.9872944,-663.0859375,-1000.0,-572.75390625,504.39453125,0.0
1694471965.9911985,936.5234375,194.3359375,-437.5,838.8671875,0.0
1694471965.995103,895.99609375,950.68359375,-427.734375,-712.40234375,0.0
1694471965.999007,-614.74609375,-409.66796875,-546.875,-1000.0,0.0
1694471966.002911,-1000.0,-1000.0,-602.5390625,-87.890625,0.0
1694471966.0068154,182.6171875,-203.125,-482.421875,-850.5859375,0.0
1694471966.0107195,-786.1328125,-888.671875,-396.484375,-40.52734375,0.0
1694471966.0146236,10.7421875,50.78125,-563.4765625,-1000.0,0.0
1694471966.0185437,-1000.0,-1000.0,-616.2109375,-244.62890625,0.0
1694471966.0224478,-240.72265625,-533.203125,-517.578125,-830.078125,0.0
1694471966.026352,-809.08203125,980.46875,-466.796875,227.5390625,0.0
1694471966.0302563,240.72265625,322.75390625,-522.94921875,-1000.0,0.0
1694471966.0341604,-1000.0,-1000.0,-593.75,-638.18359375,0.0
1694471966.0380645,-327.1484375,-887.20703125,-521.97265625,-1000.0,0.0
1694471966.0419688,-895.01953125,571.77734375,-443.359375,417.96875,0.0
1694471966.045873,420.8984375,670.8984375,-484.86328125,-1000.0,0.0
1694471966.049777,-1000.0,-814.94140625,-575.68359375,-1000.0,0.0
1694471966.0536814,-784.1796875,-1000.0,-547.8515625,330.078125,0.0
1694471966.0575855,770.99609375,79.58984375,-459.9609375,897.4609375,0.0
1694471966.0614896,-944.82421875,-958.0078125,-487.3046875,-640.625,0.0
1694471966.0654178,-383.7890625,-239.2578125,-563.4765625,-1000.0,0.0
1694471966.0693219,-1000.0,-1000.0,-587.890625,-137.20703125,0.0
1694471966.0732262,82.03125,-248.53515625,-516.11328125,-824.70703125,0.0
1694471966.0771303,-769.53125,-861.328125,-477.5390625,74.21875,0.0
1694471966.0810344,159.1796875,145.99609375,-526.3671875,-1000.0,0.0
1694471966.0849388,-1000.0,-1000.0,-562.01171875,-189.94140625,0.0
1694471966.0888429,-258.7890625,-547.36328125,-510.7421875,-837.40234375,0.0
1694471966.092747,-800.78125,981.4453125,-448.2421875,274.4140625,0.0
1694471966.0966513,248.046875,441.40625,-466.796875,-1000.0,0.0
1694471966.1005554,-1000.0,-1000.0,-539.0625,-659.1796875,0.0
1694471966.1044595,-401.85546875,-921.38671875,-551.26953125,957.51953125,0.0
1694471966.1083639,-885.7421875,521.484375,-473.14453125,706.0546875,0.0
1694471966.1122925,681.15234375,842.28515625,-479.98046875,-850.09765625,0.0
1694471966.1161966,-935.546875,-617.67578125,-569.82421875,-1000.0,0.0
1694471966.1201007,-874.51171875,-1000.0,-591.796875,231.4453125,0.0
1694471966.124005,662.109375,39.0625,-498.046875,-820.3125,0.0
1694471966.1279092,-846.19140625,-876.953125,-442.87109375,-123.53515625,0.0
1694471966.1318133,-181.15234375,-61.03515625,-519.53125,-1000.0,0.0
1694471966.1357176,-1000.0,-1000.0,-583.0078125,-185.05859375,0.0
1694471966.1396217,17.08984375,-290.0390625,-536.1328125,-805.17578125,0.0
1694471966.1435258,-764.16015625,-847.65625,-376.953125,227.5390625,0.0
1694471966.1474302,204.58984375,236.328125,-431.640625,-1000.0,0.0
1694471966.1513343,-1000.0,-1000.0,-618.65234375,-324.21875,0.0
1694471966.1552384,-270.01953125,-632.32421875,-532.71484375,-828.61328125,0.0
1694471966.1591644,-801.26953125,903.3203125,-451.171875,424.8046875,0.0
1694471966.1630688,348.6328125,531.25,-496.58203125,-1000.0,0.0
1694471966.1669729,-1000.0,-974.609375,-601.5625,-751.953125,0.0
1694471966.170877,-513.671875,-1000.0,-570.3125,855.46875,0.0
1694471966.1747813,-956.54296875,383.7890625,-451.171875,862.3046875,0.0
1694471966.1786854,814.453125,917.48046875,-455.56640625,-662.59765625,0.0
1694471966.1825895,-752.9296875,-488.76953125,-564.453125,-1000.0,0.0
1694471966.1864939,-1000.0,-1000.0,-550.29296875,138.671875,0.0
1694471966.190398,456.54296875,-90.33203125,-444.3359375,-797.8515625,0.0
1694471966.194302,-809.5703125,-875.0,-471.19140625,-12.6953125,0.0
1694471966.1982064,-73.73046875,-2.9296875,-573.73046875,-1000.0,0.0
1694471966.2021105,-1000.0,-1000.0,-590.8203125,-237.3046875,0.0
1694471966.206034,-159.66796875,-408.69140625,-505.37109375,-812.5,0.0
1694471966.209938,-791.50390625,-914.0625,-473.6328125,242.67578125,0.0
1694471966.2138424,224.609375,269.53125,-536.62109375,-1000.0,0.0
1694471966.2177465,-1000.0,-1000.0,-599.12109375,-371.09375,0.0
1694471966.2216506,-270.01953125,-781.25,-533.69140625,-913.0859375,0.0
1694471966.225555,-807.12890625,722.65625,-437.98828125,400.87890625,0.0
1694471966.229459,416.9921875,585.44921875,-498.53515625,-1000.0,0.0
1694471966.2333632,-1000.0,-910.64453125,-548.828125,-864.74609375,0.0
1694471966.2372675,-637.20703125,-1000.0,-521.97265625,711.9140625,0.0
1694471966.2411716,952.63671875,202.1484375,-506.34765625,940.91796875,0.0
1694471966.2450757,917.48046875,968.26171875,-482.91015625,-549.31640625,0.0
1694471966.24898,-585.44921875,-391.11328125,-561.5234375,-1000.0,0.0
1694471966.2529008,-1000.0,-1000.0,-601.5625,-30.76171875,0.0
1694471966.256805,212.40234375,-185.05859375,-518.5546875,-801.26953125,0.0
1694471966.2607093,-772.94921875,-865.72265625,-469.7265625,96.6796875,0.0
1694471966.2646134,21.484375,57.12890625,-544.43359375,-1000.0,0.0
1694471966.2685177,-1000.0,-1000.0,-597.16796875,-247.55859375,0.0
1694471966.2724218,-146.484375,-430.6640625,-500.48828125,-811.5234375,0.0
1694471966.276326,-813.4765625,-985.83984375,-427.734375,254.39453125,0.0
1694471966.2802303,234.86328125,349.12109375,-467.28515625,-1000.0,0.0
1694471966.2841344,-1000.0,-1000.0,-581.54296875,-537.109375,0.0
1694471966.2880385,-315.91796875,-843.26171875,-569.82421875,-953.125,0.0
1694471966.2919428,-833.0078125,633.30078125,-439.453125,693.359375,0.0
1694471966.295847,549.8046875,737.3046875,-453.61328125,-870.60546875,0.0
1694471966.299769,-1000.0,-753.41796875,-592.28515625,-1000.0,0.0
1694471966.3036733,-746.58203125,-1000.0,-582.03125,409.1796875,0.0
1694471966.3075774,813.96484375,118.1640625,-477.05078125,-869.62890625,0.0
1694471966.3114815,-918.45703125,-919.921875,-473.6328125,-270.01953125,0.0
1694471966.3153858,-331.54296875,-172.8515625,-562.98828125,-1000.0,0.0
1694471966.31929,-1000.0,-1000.0,-589.84375,-76.66015625,0.0
1694471966.323194,130.37109375,-225.5859375,-431.15234375,-788.0859375,0.0
1694471966.3270984,-761.23046875,-836.9140625,-367.67578125,198.73046875,0.0
1694471966.3310025,173.828125,181.15234375,-556.15234375,-1000.0,0.0
1694471966.3349066,-1000.0,-1000.0,-602.05078125,-263.671875,0.0
1694471966.338811,-263.18359375,-526.85546875,-506.34765625,-805.6640625,0.0
1694471966.342715,-798.828125,-992.67578125,-452.1484375,329.1015625,0.0
1694471966.3466346,259.27734375,456.0546875,-518.5546875,-1000.0,0.0
1694471966.3505387,-1000.0,-1000.0,-596.19140625,-623.53515625,0.0
1694471966.3544428,-391.11328125,-912.109375,-556.640625,987.3046875,0.0
1694471966.3583472,-880.859375,541.9921875,-471.19140625,750.0,0.0
1694471966.3622513,681.15234375,847.16796875,-477.05078125,-808.59375,0.0
1694471966.3661556,-929.19921875,-610.83984375,-539.0625,-1000.0,0.0
1694471966.3700597,-880.859375,-1000.0,-526.3671875,325.1953125,0.0
1694471966.3739638,656.25,28.80859375,-472.65625,-851.5625,0.0
1694471966.3778682,-849.12109375,-889.16015625,-488.28125,-196.77734375,0.0
1694471966.3817723,-180.6640625,-79.58984375,-540.0390625,-1000.0,0.0
1694471966.3856764,-1000.0,-1000.0,-572.265625,-212.40234375,0.0
1694471966.3895807,-26.3671875,-316.89453125,-518.06640625,-821.2890625,0.0
1694471966.3935118,-771.97265625,-865.234375,-441.89453125,220.21484375,0.0
1694471966.3974159,209.9609375,215.33203125,-514.6484375,-1000.0,0.0
1694471966.4013202,-1000.0,-1000.0,-597.65625,-385.7421875,0.0
1694471966.4052243,-268.06640625,-684.5703125,-550.78125,-853.02734375,0.0
1694471966.4091284,-802.24609375,842.28515625,-466.30859375,287.59765625,0.0
1694471966.4130328,318.84765625,500.48828125,-460.9375,-1000.0,0.0
1694471966.4169369,-1000.0,-996.58203125,-565.4296875,-895.5078125,0.0
1694471966.420841,-546.38671875,-1000.0,-589.35546875,701.171875,0.0
1694471966.4247453,-961.42578125,335.9375,-475.09765625,677.734375,0.0
1694471966.4286494,762.6953125,874.0234375,-441.40625,-866.2109375,0.0
1694471966.4325535,-801.26953125,-536.1328125,-577.1484375,-1000.0,0.0
1694471966.4364579,-1000.0,-1000.0,-605.95703125,-30.76171875,0.0
1694471966.4403858,369.62890625,-120.1171875,-490.234375,-913.57421875,0.0
1694471966.4442902,-809.08203125,-890.625,-448.73046875,-235.3515625,0.0
1694471966.4481943,-90.33203125,-18.5546875,-542.48046875,-1000.0,0.0
1694471966.4520984,-1000.0,-1000.0,-604.98046875,-213.8671875,0.0
1694471966.4560027,-184.08203125,-437.01171875,-512.6953125,-834.47265625,0.0
1694471966.4599068,-799.31640625,-940.91796875,-433.59375,202.1484375,0.0
1694471966.4638112,228.515625,261.23046875,-506.8359375,-1000.0,0.0
1694471966.4677153,-1000.0,-1000.0,-584.9609375,-505.859375,0.0
1694471966.4716194,-269.04296875,-786.62109375,-518.5546875,-907.71484375,0.0
1694471966.4755237,-807.12890625,710.9375,-395.99609375,337.890625,0.0
1694471966.4794278,416.9921875,591.796875,-496.09375,-1000.0,0.0
1694471966.483332,-1000.0,-909.66796875,-607.421875,-1000.0,0.0
1694471966.487258,-631.8359375,-1000.0,-558.59375,414.0625,0.0
1694471966.4911623,948.73046875,210.44921875,-481.4453125,797.8515625,0.0
1694471966.4950664,944.3359375,991.2109375,-488.76953125,-764.6484375,0.0
1694471966.4989705,-556.15234375,-356.4453125,-573.2421875,-1000.0,0.0
1694471966.5028749,-1000.0,-1000.0,-581.54296875,-91.30859375,0.0
1694471966.506779,248.53515625,-172.36328125,-478.02734375,-848.14453125,0.0
1694471966.510683,-777.34375,-855.95703125,-444.3359375,-35.64453125,0.0
1694471966.5145874,44.921875,93.26171875,-546.875,-1000.0,0.0
1694471966.5184915,-1000.0,-1000.0,-540.0390625,-229.4921875,0.0
1694471966.5223958,-229.00390625,-458.49609375,-468.26171875,-822.75390625,0.0
1694471966.5263,-800.29296875,-937.98828125,-487.79296875,236.328125,0.0
1694471966.530204,233.3984375,370.1171875,-516.11328125,-1000.0,0.0
1694471966.534131,-1000.0,-1000.0,-594.7265625,-633.30078125,0.0
1694471966.5380352,-311.03515625,-827.63671875,-568.359375,998.046875,0.0
1694471966.5419395,-832.03125,660.15625,-480.95703125,491.69921875,0.0
1694471966.5458436,556.640625,750.0,-482.91015625,-1000.0,0.0
1694471966.5497477,-1000.0,-741.69921875,-558.10546875,-1000.0,0.0
1694471966.553652,-735.83984375,-1000.0,-555.17578125,372.0703125,0.0
1694471966.5575562,827.63671875,137.20703125,-472.65625,989.2578125,0.0
1694471966.5614605,-919.921875,-921.38671875,-433.59375,-496.09375,0.0
1694471966.5653646,-326.66015625,-178.22265625,-507.8125,-1000.0,0.0
1694471966.5692687,-1000.0,-1000.0,-598.14453125,-161.1328125,0.0
1694471966.573173,122.55859375,-227.5390625,-524.90234375,-841.796875,0.0
1694471966.5770772,-762.20703125,-843.75,-458.49609375,74.21875,0.0
1694471966.5810015,164.0625,161.62109375,-520.01953125,-1000.0,0.0
1694471966.5849056,-1000.0,-1000.0,-601.5625,-333.49609375,0.0
1694471966.58881,-260.25390625,-558.59375,-542.96875,-852.5390625,0.0
1694471966.592714,-801.7578125,975.5859375,-456.54296875,253.41796875,0.0
1694471966.5966182,241.2109375,432.12890625,-499.0234375,-1000.0,0.0
1694471966.6005225,-1000.0,-1000.0,-563.4765625,-747.55859375,0.0
1694471966.6044266,-426.7578125,-944.3359375,-563.96484375,886.23046875,0.0
1694471966.6083307,-890.13671875,487.3046875,-405.2734375,587.890625,0.0
1694471966.612235,651.3671875,810.05859375,-384.27734375,-937.5,0.0
1694471966.6161392,-948.2421875,-641.6015625,-602.5390625,-1000.0,0.0
1694471966.6200433,-925.78125,-1000.0,-588.37890625,177.24609375,0.0
1694471966.6239476,585.9375,-13.671875,-481.93359375,951.66015625,0.0
1694471966.6278694,-843.26171875,-905.76171875,-482.91015625,-533.69140625,0.0
1694471966.6317737,-190.4296875,-102.5390625,-573.73046875,-1000.0,0.0
1694471966.6356778,-1000.0,-1000.0,-580.56640625,-204.1015625,0.0
1694471966.639582,-41.015625,-329.1015625,-495.60546875,-847.16796875,0.0
1694471966.6434863,-774.90234375,-875.9765625,-459.47265625,124.51171875,0.0
1694471966.6473904,211.9140625,208.984375,-507.8125,-1000.0,0.0
1694471966.6512945,-1000.0,-1000.0,-568.84765625,-356.4453125,0.0
1694471966.6551988,-268.5546875,-679.19921875,-490.234375,-854.98046875,0.0
1694471966.659103,-802.24609375,847.16796875,-467.28515625,270.5078125,0.0
1694471966.663007,343.75,520.5078125,-525.390625,-1000.0,0.0
1694471966.6669114,-1000.0,-984.375,-581.0546875,-811.5234375,0.0
1694471966.6708155,-537.109375,-1000.0,-547.36328125,806.640625,0.0
1694471966.674735,-962.890625,348.6328125,-479.98046875,657.71484375,0.0
1694471966.6786394,797.36328125,895.99609375,-466.30859375,-883.30078125,0.0
1694471966.6825435,-777.83203125,-514.6484375,-553.7109375,-1000.0,0.0
1694471966.6864476,-1000.0,-1000.0,-598.6328125,46.875,0.0
1694471966.690352,448.2421875,-93.75,-491.2109375,-923.828125,0.0
1694471966.694256,-808.59375,-872.0703125,-438.96484375,-256.8359375,0.0
1694471966.6981602,-71.2890625,7.8125,-483.88671875,-1000.0,0.0
1694471966.7020645,-1000.0,-1000.0,-541.9921875,-222.16796875,0.0
1694471966.7059686,-155.2734375,-402.83203125,-539.55078125,-827.1484375,0.0
1694471966.7098727,-790.0390625,-906.25,-466.30859375,232.421875,0.0
1694471966.713777,223.6328125,293.9453125,-505.859375,-1000.0,0.0
1694471966.7176812,-1000.0,-1000.0,-604.4921875,-441.40625,0.0
1694471966.7216017,-270.99609375,-750.0,-560.546875,-877.9296875,0.0
1694471966.7255058,-809.08203125,760.7421875,-471.19140625,452.1484375,0.0
1694471966.72941,458.984375,644.53125,-497.55859375,-1000.0,0.0
1694471966.7333143,-1000.0,-869.140625,-586.42578125,-915.0390625,0.0
1694471966.7372184,-613.28125,-1000.0,-563.4765625,584.47265625,0.0
1694471966.7411225,959.9609375,261.71875,-457.03125,-960.44921875,0.0
1694471966.7450268,963.37890625,-983.3984375,-386.23046875,-415.0390625,0.0
1694471966.748931,-524.4140625,-316.89453125,-507.32421875,-1000.0,0.0
1694471966.752835,-1000.0,-1000.0,-608.3984375,-11.23046875,0.0
1694471966.7567394,278.3203125,-155.2734375,-483.3984375,-791.9921875,0.0
1694471966.7606435,-774.4140625,-843.26171875,-417.96875,103.515625,0.0
1694471966.7645476,59.08203125,107.421875,-530.76171875,-1000.0,0.0
1694471966.7684655,-1000.0,-1000.0,-603.02734375,-249.0234375,0.0
1694471966.7723696,-220.703125,-456.54296875,-517.08984375,-810.05859375,0.0
1694471966.776274,-795.8984375,-934.08203125,-456.0546875,253.90625,0.0
1694471966.780178,231.4453125,376.46484375,-523.92578125,-1000.0,0.0
1694471966.7840822,-1000.0,-1000.0,-600.09765625,-528.3203125,0.0
1694471966.7879865,-311.03515625,-833.984375,-516.11328125,-936.03515625,0.0
1694471966.7918906,-833.0078125,653.80859375,-424.8046875,627.9296875,0.0
1694471966.7957947,569.3359375,753.41796875,-484.86328125,-942.87109375,0.0
1694471966.799699,-1000.0,-734.86328125,-580.078125,-1000.0,0.0
1694471966.8036032,-736.81640625,-1000.0,-547.8515625,454.58984375,0.0
1694471966.8075073,827.63671875,128.90625,-488.28125,-881.8359375,0.0
1694471966.8114116,-918.9453125,-924.8046875,-479.98046875,-281.73828125,0.0
1694471966.8153412,-321.2890625,-181.15234375,-559.5703125,-1000.0,0.0
1694471966.8192453,-1000.0,-1000.0,-595.21484375,-83.0078125,0.0
1694471966.8231494,114.2578125,-239.2578125,-516.11328125,-792.48046875,0.0
1694471966.8270538,-763.18359375,-848.6328125,-475.09765625,184.5703125,0.0
1694471966.830958,166.50390625,160.15625,-520.99609375,-1000.0,0.0
1694471966.8348622,-1000.0,-1000.0,-563.4765625,-281.73828125,0.0
1694471966.8387663,-261.23046875,-566.89453125,-499.0234375,-813.4765625,0.0
1694471966.8426704,-801.26953125,965.33203125,-460.9375,331.0546875,0.0
1694471966.8465748,257.8125,436.03515625,-488.28125,-1000.0,0.0
1694471966.850479,-1000.0,-1000.0,-534.66796875,-592.7734375,0.0
1694471966.854383,-423.828125,-944.82421875,-560.546875,-983.88671875,0.0
1694471966.8582873,-893.06640625,481.93359375,-484.86328125,726.5625,0.0
1694471966.862214,680.6640625,818.84765625,-471.19140625,-809.08203125,0.0
1694471966.8661182,-927.24609375,-630.37109375,-563.4765625,-1000.0,0.0
1694471966.8700225,-911.62109375,-1000.0,-591.796875,242.67578125,0.0
1694471966.8739266,614.2578125,-5.859375,-499.0234375,-818.84765625,0.0
1694471966.8778307,-844.7265625,-899.90234375,-457.03125,-121.09375,0.0
1694471966.881735,-179.19921875,-91.30859375,-526.85546875,-1000.0,0.0
1694471966.8856392,-1000.0,-1000.0,-575.1953125,-178.22265625,0.0
1694471966.8895433,-47.36328125,-326.171875,-533.69140625,-803.22265625,0.0
1694471966.8934476,-775.390625,-872.0703125,-399.90234375,225.5859375,0.0
1694471966.8973517,212.40234375,219.7265625,-441.40625,-1000.0,0.0
1694471966.9012558,-1000.0,-1000.0,-623.046875,-331.54296875,0.0
1694471966.9051602,-269.53125,-670.41015625,-544.921875,-832.03125,0.0
1694471966.9090846,-802.24609375,854.00390625,-427.734375,426.7578125,0.0
1694471966.9129887,355.46875,530.76171875,-485.3515625,-1000.0,0.0
1694471966.9168928,-1000.0,-975.5859375,-603.515625,-772.94921875,0.0
1694471966.920797,-524.4140625,-1000.0,-571.2890625,818.359375,0.0
1694471966.9247012,-962.890625,356.4453125,-454.1015625,904.296875,0.0
1694471966.9286056,824.70703125,920.41015625,-448.73046875,-614.74609375,0.0
1694471966.9325097,-737.3046875,-482.91015625,-560.546875,-1000.0,0.0
1694471966.9364138,-1000.0,-1000.0,-554.19921875,131.8359375,0.0
1694471966.940318,434.5703125,-101.07421875,-432.6171875,-790.52734375,0.0
1694471966.9442222,-804.19921875,-866.69921875,-456.0546875,35.15625,0.0
1694471966.9481263,-58.59375,23.4375,-568.359375,-1000.0,0.0
1694471966.9520307,-1000.0,-1000.0,-589.84375,-238.28125,0.0
1694471966.955956,-155.2734375,-379.8828125,-500.0,-806.15234375,0.0
1694471966.95986,-788.57421875,-886.71875,-468.26171875,238.28125,0.0
1694471966.9637642,223.6328125,300.78125,-534.1796875,-1000.0,0.0
1694471966.9676685,-1000.0,-1000.0,-599.609375,-362.3046875,0.0
1694471966.9715726,-271.484375,-760.25390625,-551.7578125,-854.4921875,0.0
1694471966.975477,-809.5703125,750.48828125,-439.94140625,567.3828125,0.0
1694471966.979381,471.19140625,640.625,-480.46875,-1000.0,0.0
1694471966.9832852,-1000.0,-870.1171875,-545.41015625,-827.63671875,0.0
1694471966.9871895,-610.83984375,-1000.0,-516.11328125,744.62890625,0.0
1694471966.9910936,961.42578125,244.62890625,-497.55859375,-981.4453125,0.0
1694471966.9949977,967.28515625,-969.7265625,-482.421875,-418.9453125,0.0
1694471966.998902,-508.7890625,-290.52734375,-547.8515625,-1000.0,0.0
1694471967.0028248,-1000.0,-1000.0,-586.9140625,-11.71875,0.0
1694471967.0067291,253.41796875,-163.57421875,-508.7890625,-787.109375,0.0
1694471967.0106332,-773.4375,-845.21484375,-459.47265625,150.390625,0.0
1694471967.0145373,61.5234375,105.46875,-542.96875,-1000.0,0.0
1694471967.0184417,-1000.0,-1000.0,-591.796875,-237.79296875,0.0
1694471967.0223458,-227.5390625,-467.28515625,-512.20703125,-863.76953125,0.0
1694471967.0262501,-798.33984375,-944.3359375,-436.03515625,188.96484375,0.0
1694471967.0301542,232.91015625,369.62890625,-441.89453125,-1000.0,0.0
1694471967.0340583,-1000.0,-1000.0,-579.58984375,-582.03125,0.0
1694471967.0379627,-315.91796875,-841.30859375,-581.0546875,-984.375,0.0
1694471967.0418668,-835.44921875,640.13671875,-446.77734375,678.7109375,0.0
1694471967.045771,571.77734375,755.37109375,-458.984375,-880.859375,0.0
1694471967.0496914,-1000.0,-729.98046875,-595.703125,-1000.0,0.0
1694471967.0535955,-756.34765625,-1000.0,-592.28515625,373.53515625,0.0
1694471967.0574996,808.59375,106.4453125,-478.515625,-887.6953125,0.0
1694471967.061404,-915.52734375,-923.828125,-468.75,-320.3125,0.0
1694471967.065308,-314.94140625,-172.8515625,-548.828125,-1000.0,0.0
1694471967.0692122,-1000.0,-1000.0,-582.03125,-74.70703125,0.0
1694471967.0731165,84.47265625,-257.32421875,-440.4296875,-828.125,0.0
1694471967.0770206,-765.625,-856.93359375,-379.8828125,183.59375,0.0
1694471967.0809247,174.8046875,157.71484375,-534.66796875,-1000.0,0.0
1694471967.084829,-1000.0,-1000.0,-581.0546875,-353.515625,0.0
1694471967.0887332,-262.20703125,-583.984375,-525.87890625,-846.19140625,0.0
1694471967.0926375,-801.26953125,947.75390625,-473.6328125,277.83203125,0.0
1694471967.0965555,262.20703125,446.77734375,-524.4140625,-1000.0,0.0
1694471967.1004596,-1000.0,-1000.0,-581.54296875,-735.83984375,0.0
1694471967.104364,-436.5234375,-955.56640625,-551.7578125,900.390625,0.0
1694471967.108268,-899.4140625,465.8203125,-484.86328125,613.76953125,0.0
1694471967.1121724,690.4296875,829.1015625,-474.609375,-939.453125,0.0
1694471967.1160765,-908.69140625,-615.72265625,-552.734375,-1000.0,0.0
1694471967.1199806,-941.40625,-1000.0,-535.15625,254.39453125,0.0
1694471967.123885,574.70703125,-27.83203125,-470.703125,-948.73046875,0.0
1694471967.127789,-841.796875,-903.80859375,-486.81640625,-393.06640625,0.0
1694471967.1316931,-181.15234375,-94.23828125,-541.50390625,-1000.0,0.0
1694471967.1355975,-1000.0,-1000.0,-576.171875,-208.0078125,0.0
1694471967.1395016,-64.453125,-343.75,-520.99609375,-843.75,0.0
1694471967.1434205,-778.80859375,-882.8125,-468.75,150.390625,0.0
1694471967.1473246,216.30859375,222.65625,-523.4375,-1000.0,0.0
1694471967.151229,-1000.0,-1000.0,-594.7265625,-447.75390625,0.0
1694471967.155133,-250.9765625,-677.734375,-548.828125,-889.6484375,0.0
1694471967.159037,-859.375,787.109375,-468.75,269.04296875,0.0
1694471967.1629415,273.92578125,459.47265625,-465.8203125,-1000.0,0.0
1694471967.1668456,-1000.0,-969.7265625,-558.59375,-953.61328125,0.0
1694471967.1707497,-552.734375,-1000.0,-587.40234375,613.28125,0.0
1694471967.174654,-981.4453125,334.9609375,-473.6328125,655.2734375,0.0
1694471967.178558,836.42578125,925.78125,-456.54296875,-885.25390625,0.0
1694471967.1824625,-728.02734375,-472.16796875,-562.98828125,-1000.0,0.0
1694471967.1863666,-1000.0,-1000.0,-591.30859375,-128.41796875,0.0
1694471967.190297,424.31640625,-98.6328125,-509.27734375,-926.7578125,0.0
1694471967.1942012,-801.7578125,-860.3515625,-441.89453125,-208.984375,0.0
1694471967.1981053,-50.29296875,36.1328125,-524.90234375,-1000.0,0.0
1694471967.2020094,-1000.0,-1000.0,-603.515625,-215.33203125,0.0
1694471967.2059138,-155.2734375,-395.5078125,-518.06640625,-830.56640625,0.0
1694471967.209818,-788.0859375,-895.5078125,-432.6171875,234.86328125,0.0
1694471967.2137222,223.6328125,313.4765625,-497.55859375,-1000.0,0.0
1694471967.2176263,-1000.0,-1000.0,-593.26171875,-522.94921875,0.0
1694471967.2215304,-271.484375,-747.55859375,-523.4375,-908.69140625,0.0
1694471967.2254348,-810.546875,761.71875,-416.9921875,318.84765625,0.0
1694471967.229339,486.328125,668.9453125,-494.62890625,-1000.0,0.0
1694471967.233243,-1000.0,-839.84375,-598.14453125,-1000.0,0.0
1694471967.237171,-624.0234375,-1000.0,-557.12890625,244.62890625,0.0
1694471967.241075,953.125,244.62890625,-460.9375,800.29296875,0.0
1694471967.2449794,979.4921875,-962.40234375,-479.4921875,-753.90625,0.0
1694471967.2488835,-496.58203125,-276.85546875,-562.5,-1000.0,0.0
1694471967.2527878,-1000.0,-1000.0,-565.91796875,-117.1875,0.0
1694471967.256692,260.25390625,-163.57421875,-475.5859375,-866.69921875,0.0
1694471967.260596,-771.484375,-836.9140625,-436.5234375,-61.03515625,0.0
1694471967.2645004,83.0078125,123.53515625,-524.90234375,-1000.0,0.0
1694471967.2684045,-1000.0,-1000.0,-541.015625,-234.86328125,0.0
1694471967.2723086,-236.328125,-477.05078125,-470.21484375,-827.63671875,0.0
1694471967.276213,-797.8515625,-950.1953125,-476.5625,212.890625,0.0
1694471967.280117,233.3984375,379.39453125,-506.8359375,-1000.0,0.0
1694471967.2840424,-1000.0,-1000.0,-583.984375,-878.41796875,0.0
1694471967.2879465,-316.40625,-858.88671875,-558.10546875,730.46875,0.0
1694471967.2918506,-836.42578125,619.140625,-473.6328125,426.26953125,0.0
1694471967.295755,578.61328125,754.8828125,-489.2578125,-1000.0,0.0
1694471967.299659,-1000.0,-725.5859375,-561.03515625,-1000.0,0.0
1694471967.3035634,-782.2265625,-1000.0,-551.26953125,252.44140625,0.0
1694471967.3074675,776.3671875,86.9140625,-462.890625,895.99609375,0.0
1694471967.3113716,-900.87890625,-927.24609375,-421.38671875,-628.41796875,0.0
1694471967.315276,-299.8046875,-180.6640625,-511.71875,-1000.0,0.0
1694471967.31918,-1000.0,-1000.0,-603.515625,-181.15234375,0.0
1694471967.323084,89.84375,-250.48828125,-537.109375,-875.0,0.0
1694471967.3269885,-764.16015625,-852.5390625,-431.15234375,-3.90625,0.0
1694471967.330911,180.17578125,166.50390625,-492.1875,-1000.0,0.0
1694471967.3348153,-1000.0,-1000.0,-611.81640625,-446.2890625,0.0
1694471967.3387194,-264.16015625,-578.61328125,-543.9453125,-911.62109375,0.0
1694471967.3426237,-798.33984375,952.63671875,-453.61328125,279.296875,0.0
1694471967.3465278,278.80859375,463.8671875,-495.1171875,-1000.0,0.0
1694471967.350432,-1000.0,-1000.0,-568.84765625,-723.14453125,0.0
1694471967.3543363,-390.625,-934.08203125,-560.546875,874.51171875,0.0
1694471967.3582404,-888.18359375,494.140625,-404.78515625,744.140625,0.0
1694471967.3621445,722.16796875,876.46484375,-385.25390625,-816.89453125,0.0
1694471967.3660488,-887.6953125,-565.4296875,-594.7265625,-1000.0,0.0
1694471967.369953,-879.39453125,-1000.0,-583.984375,193.359375,0.0
1694471967.3738573,658.203125,12.20703125,-480.95703125,-847.16796875,0.0
1694471967.3777812,-834.47265625,-863.76953125,-471.19140625,-183.59375,0.0
1694471967.3816853,-133.7890625,-25.390625,-558.10546875,-1000.0,0.0
1694471967.3855896,-1000.0,-1000.0,-594.7265625,-200.68359375,0.0
1694471967.3894937,18.5546875,-289.0625,-508.7890625,-809.5703125,0.0
1694471967.3933978,-760.7421875,-841.30859375,-458.984375,232.421875,0.0
1694471967.3973022,203.61328125,274.4140625,-512.6953125,-1000.0,0.0
1694471967.4012063,-1000.0,-1000.0,-565.4296875,-270.99609375,0.0
1694471967.4051106,-273.4375,-601.5625,-479.98046875,-812.98828125,0.0
1694471967.4090147,-800.29296875,929.6875,-439.94140625,529.78515625,0.0
1694471967.4129188,421.38671875,621.09375,-524.90234375,-1000.0,0.0
1694471967.4168231,-1000.0,-909.1796875,-572.265625,-530.76171875,0.0
1694471967.4207273,-428.22265625,-958.49609375,-539.55078125,961.9140625,0.0
1694471967.4246485,-949.70703125,455.56640625,-476.07421875,-909.66796875,0.0
1694471967.4285526,943.84765625,-970.21484375,-437.01171875,-347.16796875,0.0
1694471967.432457,-600.5859375,-332.03125,-538.57421875,-937.98828125,0.0
1694471967.436361,-913.57421875,-1000.0,-592.7734375,574.70703125,0.0
1694471967.4402652,637.6953125,-0.48828125,-488.76953125,-756.34765625,0.0
1694471967.4441695,-797.8515625,-809.08203125,-432.6171875,107.91015625,0.0
1694471967.4480736,27.83203125,112.79296875,-466.796875,-1000.0,0.0
1694471967.451978,-1000.0,-1000.0,-533.203125,239.74609375,0.0
1694471967.455882,25.390625,-296.38671875,-541.50390625,-735.3515625,0.0
1694471967.4597862,-746.58203125,-835.44921875,-451.171875,369.140625,0.0
1694471967.4636905,198.73046875,393.06640625,-483.88671875,-1000.0,0.0
1694471967.4675946,-1000.0,-1000.0,-593.75,-198.73046875,0.0
1694471967.4715135,-275.87890625,-621.58203125,-552.24609375,-869.140625,0.0
1694471967.4754176,-812.5,900.390625,-468.26171875,936.03515625,0.0
1694471967.479322,576.171875,781.73828125,-483.3984375,-598.6328125,0.0
1694471967.483226,-1000.0,-723.14453125,-562.5,-333.49609375,0.0
1694471967.4871302,-416.9921875,-995.60546875,-555.17578125,-962.890625,0.0
1694471967.4910345,-976.5625,393.06640625,-445.80078125,-841.796875,0.0
1694471967.4949386,-923.33984375,-886.71875,-363.28125,7.8125,0.0
1694471967.4988427,-345.703125,-139.6484375,-501.46484375,-513.671875,0.0
1694471967.502747,-928.22265625,-1000.0,-610.83984375,890.625,0.0
1694471967.5066512,617.67578125,-79.1015625,-470.703125,-794.43359375,0.0
1694471967.5105555,-785.15625,-796.875,-425.78125,141.11328125,0.0
1694471967.5144596,158.203125,188.96484375,-544.43359375,-970.21484375,0.0
1694471967.5183759,-1000.0,-1000.0,-583.49609375,355.46875,0.0
1694471967.52228,-90.8203125,-379.39453125,-503.90625,-758.7890625,0.0
1694471967.526184,-751.953125,-874.51171875,-452.1484375,556.15234375,0.0
1694471967.5300884,242.1875,450.68359375,-517.578125,-972.16796875,0.0
1694471967.5339925,-1000.0,-1000.0,-585.9375,-173.828125,0.0
1694471967.5378969,-275.87890625,-758.30078125,-517.08984375,-879.39453125,0.0
1694471967.541801,-838.37890625,744.62890625,-428.22265625,-972.16796875,0.0
1694471967.545705,687.98828125,849.12109375,-469.23828125,-407.71484375,0.0
1694471967.5496094,-961.9140625,-618.1640625,-578.125,-366.2109375,0.0
1694471967.5535135,-642.578125,-1000.0,-529.78515625,-975.09765625,0.0
1694471967.5574179,916.015625,187.98828125,-445.3125,-835.9375,0.0
1694471967.561322,-880.859375,-881.34765625,-480.95703125,1.953125,0.0
1694471967.5652497,-212.890625,-93.75,-554.19921875,-677.734375,0.0
1694471967.5691538,-1000.0,-1000.0,-571.2890625,781.25,0.0
1694471967.5730581,237.3046875,-205.078125,-500.0,-779.78515625,0.0
1694471967.5769622,-755.37109375,-821.77734375,-477.5390625,160.15625,0.0
1694471967.5808666,189.453125,204.1015625,-527.34375,-1000.0,0.0
1694471967.5847707,-1000.0,-1000.0,-542.96875,155.2734375,0.0
1694471967.5886748,-263.671875,-534.1796875,-495.60546875,-746.58203125,0.0
1694471967.5925791,-793.45703125,-1000.0,-463.8671875,534.66796875,0.0
1694471967.5964832,301.7578125,486.81640625,-474.609375,-1000.0,0.0
1694471967.6003876,-1000.0,-1000.0,-542.48046875,-272.4609375,0.0
1694471967.6042917,-363.28125,-923.828125,-558.59375,-886.23046875,0.0
1694471967.6081958,-875.48828125,516.11328125,-472.16796875,974.609375,0.0
1694471967.6121242,723.14453125,866.69921875,-460.44921875,-554.6875,0.0
1694471967.6160285,-873.046875,-564.453125,-549.31640625,-604.00390625,0.0
1694471967.6199327,-895.99609375,-1000.0,-597.16796875,936.03515625,0.0
1694471967.6238368,650.390625,4.39453125,-504.39453125,-846.6796875,0.0
1694471967.627741,-843.75,-894.53125,-457.03125,26.3671875,0.0
1694471967.6316452,-160.64453125,-78.125,-518.5546875,-1000.0,0.0
1694471967.6355495,-1000.0,-1000.0,-569.3359375,206.0546875,0.0
1694471967.6394536,-47.8515625,-348.14453125,-545.8984375,-740.72265625,0.0
1694471967.6433578,-767.08984375,-884.27734375,-408.203125,187.5,0.0
1694471967.647262,193.359375,206.54296875,-438.96484375,-1000.0,0.0
1694471967.6511662,-1000.0,-1000.0,-612.79296875,-267.578125,0.0
1694471967.6550705,-180.17578125,-684.5703125,-536.62109375,-801.7578125,0.0
1694471967.6589963,-815.91796875,774.90234375,-454.1015625,334.47265625,0.0
1694471967.6629007,337.890625,512.20703125,-514.6484375,-1000.0,0.0
1694471967.6668048,-1000.0,-971.6796875,-611.328125,-545.41015625,0.0
1694471967.670709,-614.74609375,-1000.0,-564.453125,-926.7578125,0.0
1694471967.6746132,-986.81640625,260.25390625,-453.61328125,613.28125,0.0
1694471967.6785173,733.88671875,840.33203125,-467.7734375,-896.97265625,0.0
1694471967.6824217,-817.3828125,-557.6171875,-553.22265625,-1000.0,0.0
1694471967.6863258,-1000.0,-1000.0,-562.98828125,283.203125,0.0
1694471967.69023,246.09375,-182.12890625,-455.56640625,-997.0703125,0.0
1694471967.6941342,-814.94140625,-947.265625,-463.37890625,-465.8203125,0.0
1694471967.6980383,-131.34765625,-75.1953125,-574.21875,-1000.0,0.0
1694471967.7019427,-1000.0,-1000.0,-588.37890625,-185.546875,0.0
1694471967.7058663,-226.07421875,-560.05859375,-518.06640625,-864.74609375,0.0
1694471967.7097704,-818.84765625,906.25,-492.67578125,5.37109375,0.0
1694471967.7136748,241.2109375,211.9140625,-516.6015625,-1000.0,0.0
1694471967.717579,-1000.0,-1000.0,-595.21484375,-404.78515625,0.0
1694471967.721483,-350.5859375,-910.64453125,-558.10546875,-884.765625,0.0
1694471967.7253873,-834.9609375,515.13671875,-446.2890625,208.49609375,0.0
1694471967.7292914,319.82421875,494.140625,-489.2578125,-1000.0,0.0
1694471967.7331958,-1000.0,-949.21875,-540.0390625,-1000.0,0.0
1694471967.7371,-855.46875,-1000.0,-536.62109375,308.10546875,0.0
1694471967.741004,741.69921875,30.76171875,-522.94921875,339.35546875,0.0
1694471967.7449083,803.7109375,815.91796875,-491.2109375,-1000.0,0.0
1694471967.7488124,-758.7890625,-539.0625,-556.640625,-1000.0,0.0
1694471967.752734,-1000.0,-1000.0,-601.07421875,-46.38671875,0.0
1694471967.756638,34.66796875,-339.84375,-530.76171875,539.55078125,0.0
1694471967.7605422,-827.1484375,938.96484375,-483.3984375,-876.953125,0.0
1694471967.7644465,-97.65625,-77.1484375,-554.19921875,-1000.0,0.0
1694471967.7683506,-1000.0,-1000.0,-605.95703125,-313.4765625,0.0
1694471967.772255,-226.07421875,-712.40234375,-524.4140625,871.09375,0.0
1694471967.776159,-825.1953125,710.44921875,-451.171875,-423.33984375,0.0
1694471967.7800632,247.0703125,219.7265625,-480.46875,-1000.0,0.0
1694471967.7839675,-1000.0,-1000.0,-602.05078125,-1000.0,0.0
1694471967.7878716,-524.4140625,-1000.0,-591.30859375,300.29296875,0.0
1694471967.791776,-909.1796875,335.44921875,-474.609375,119.140625,0.0
1694471967.79568,380.859375,535.15625,-484.375,-1000.0,0.0
1694471967.7996023,-1000.0,-896.97265625,-612.79296875,-1000.0,0.0
1694471967.8035064,-1000.0,-1000.0,-609.86328125,-28.80859375,0.0
1694471967.8074107,475.5859375,-103.515625,-493.1640625,263.671875,0.0
1694471967.8113148,908.69140625,847.65625,-481.4453125,-1000.0,0.0
1694471967.815219,-635.7421875,-439.94140625,-571.77734375,-1000.0,0.0
1694471967.8191233,-1000.0,-1000.0,-588.37890625,-144.53125,0.0
1694471967.8230274,-132.8125,-460.9375,-456.54296875,472.65625,0.0
1694471967.8269317,-841.796875,882.32421875,-398.4375,-896.484375,0.0
1694471967.8308358,-0.9765625,18.06640625,-544.921875,-1000.0,0.0
1694471967.83474,-1000.0,-1000.0,-607.421875,-759.765625,0.0
1694471967.8386443,-230.46875,-796.38671875,-539.55078125,198.2421875,0.0
1694471967.8425484,-822.75390625,633.30078125,-502.44140625,-580.078125,0.0
1694471967.846468,246.58203125,316.40625,-546.875,-1000.0,0.0
1694471967.850372,-1000.0,-1000.0,-607.91015625,-1000.0,0.0
1694471967.8542764,-616.2109375,-1000.0,-566.40625,54.6875,0.0
1694471967.8581805,-965.8203125,243.65234375,-505.37109375,38.57421875,0.0
1694471967.8620846,531.25,633.30078125,-500.9765625,-1000.0,0.0
1694471967.865989,-997.55859375,-810.05859375,-548.33984375,-1000.0,0.0
1694471967.869893,-1000.0,-1000.0,-541.015625,-67.87109375,0.0
1694471967.8737974,309.08203125,-154.296875,-492.67578125,247.55859375,0.0
1694471967.8777015,-924.31640625,955.56640625,-501.953125,-1000.0,0.0
1694471967.8816056,-379.8828125,-254.39453125,-549.8046875,-1000.0,0.0
1694471967.88551,-1000.0,-1000.0,-570.3125,-401.3671875,0.0
1694471967.889414,-196.77734375,-483.88671875,-530.76171875,285.15625,0.0
1694471967.8933313,-826.171875,947.265625,-497.55859375,-879.8828125,0.0
1694471967.8972354,182.12890625,143.06640625,-541.9921875,-1000.0,0.0
1694471967.9011397,-1000.0,-1000.0,-599.609375,-950.68359375,0.0
1694471967.9050438,-270.5078125,-820.80078125,-564.453125,178.7109375,0.0
1694471967.908948,-815.91796875,642.578125,-479.4921875,-265.13671875,0.0
1694471967.9128523,270.5078125,452.1484375,-459.9609375,-1000.0,0.0
1694471967.9167564,-1000.0,-1000.0,-568.359375,-1000.0,0.0
1694471967.9206607,-679.19921875,-1000.0,-602.5390625,-10.7421875,0.0
1694471967.9245648,945.80078125,207.03125,-478.02734375,248.046875,0.0
1694471967.9284692,736.328125,824.21875,-458.0078125,-1000.0,0.0
1694471967.9323733,-832.51953125,-580.078125,-581.0546875,-1000.0,0.0
1694471967.9362774,-1000.0,-1000.0,-609.86328125,-72.75390625,0.0
1694471967.9402058,203.61328125,-174.8046875,-498.53515625,431.15234375,0.0
1694471967.9441102,-804.6875,-918.45703125,-452.1484375,-924.31640625,0.0
1694471967.9480143,-83.0078125,-23.92578125,-547.36328125,-1000.0,0.0
1694471967.9519184,-1000.0,-1000.0,-610.3515625,-415.52734375,0.0
1694471967.9558227,-220.703125,-479.4921875,-523.92578125,933.10546875,0.0
1694471967.9597268,-810.546875,-979.00390625,-427.24609375,-195.3125,0.0
1694471967.9636312,235.83984375,286.62109375,-481.4453125,-1000.0,0.0
1694471967.9675353,-1000.0,-1000.0,-595.703125,-847.65625,0.0
1694471967.9714394,-302.24609375,-826.66015625,-540.52734375,677.24609375,0.0
1694471967.9753437,-820.80078125,655.2734375,-422.36328125,299.8046875,0.0
1694471967.9792478,471.19140625,630.859375,-492.67578125,-1000.0,0.0
1694471967.9831522,-1000.0,-866.2109375,-607.91015625,-1000.0,0.0
1694471967.987078,-706.54296875,-1000.0,-566.40625,93.75,0.0
1694471967.990982,874.51171875,162.109375,-467.28515625,499.51171875,0.0
1694471967.9948864,984.375,-979.98046875,-477.05078125,-951.171875,0.0
1694471967.9987905,-499.0234375,-297.8515625,-565.4296875,-1000.0,0.0
1694471968.0026948,-1000.0,-1000.0,-572.265625,-178.22265625,0.0
1694471968.006599,172.36328125,-193.84765625,-477.05078125,-929.19921875,0.0
1694471968.010503,-769.53125,-845.703125,-455.078125,-188.4765625,0.0
1694471968.0144074,115.72265625,132.8125,-545.41015625,-1000.0,0.0
