time,TP9,AF7,AF8,TP10,Right AUX
1694476229.19812,238.76953125,265.13671875,-356.93359375,242.67578125,0.0
1694476229.2020183,-1000.0,-1000.0,-875.9765625,-1000.0,0.0
1694476229.2059166,-335.9375,-539.55078125,-735.3515625,-527.34375,0.0
1694476229.209815,-835.9375,-943.359375,-219.7265625,-937.98828125,0.0
1694476229.2137132,514.6484375,647.94921875,-229.98046875,671.875,0.0
1694476229.2176116,-1000.0,-919.43359375,-793.9453125,-919.43359375,0.0
1694476229.2215097,-767.08984375,-1000.0,-810.05859375,-1000.0,0.0
1694476229.225408,810.05859375,414.0625,-320.3125,442.87109375,0.0
1694476229.2293065,-973.14453125,-864.74609375,-169.921875,-830.078125,0.0
1694476229.2332046,-432.6171875,-236.81640625,-653.3203125,-169.921875,0.0
1694476229.237103,-1000.0,-1000.0,-890.13671875,-1000.0,0.0
1694476229.2410014,100.5859375,-137.20703125,-567.3828125,-147.94921875,0.0
1694476229.2449799,-772.94921875,-801.26953125,-177.24609375,-795.41015625,0.0
1694476229.2488782,99.609375,208.49609375,-466.30859375,225.5859375,0.0
1694476229.2527764,-1000.0,-1000.0,-889.6484375,-1000.0,0.0
1694476229.2566748,-250.48828125,-290.0390625,-672.8515625,-267.08984375,0.0
1694476229.2605731,-807.6171875,-814.94140625,-158.203125,-804.19921875,0.0
1694476229.2644713,241.69921875,333.0078125,-277.34375,354.00390625,0.0
1694476229.2683697,-1000.0,-1000.0,-834.47265625,-1000.0,0.0
1694476229.2722678,-443.359375,-656.25,-801.26953125,-637.6953125,0.0
1694476229.2761662,-888.671875,946.2890625,-295.8984375,972.16796875,0.0
1694476229.2800646,622.55859375,788.0859375,-219.23828125,837.40234375,0.0
1694476229.2839627,-982.421875,-753.90625,-756.8359375,-695.3125,0.0
1694476229.287861,-930.17578125,-1000.0,-876.46484375,-1000.0,0.0
1694476229.2918324,585.44921875,209.9609375,-442.3828125,208.49609375,0.0
1694476229.2957308,-854.00390625,-812.5,-117.67578125,-791.50390625,0.0
1694476229.2996292,-241.69921875,-85.9375,-550.78125,-44.43359375,0.0
1694476229.3035274,-1000.0,-1000.0,-898.92578125,-1000.0,0.0
1694476229.3074257,-23.92578125,-204.1015625,-602.5390625,-234.375,0.0
1694476229.3113241,-775.390625,-808.59375,-21.97265625,-812.01171875,0.0
1694476229.3152223,209.9609375,237.3046875,-253.41796875,240.234375,0.0
1694476229.3191206,-1000.0,-1000.0,-891.6015625,-1000.0,0.0
1694476229.323019,-268.06640625,-367.67578125,-726.07421875,-347.16796875,0.0
1694476229.3269172,-802.734375,-845.21484375,-154.78515625,-836.42578125,0.0
1694476229.3308156,321.77734375,438.4765625,-238.28125,477.5390625,0.0
1694476229.334714,-1000.0,-1000.0,-854.98046875,-1000.0,0.0
1694476229.3387187,-550.29296875,-792.48046875,-818.84765625,-781.73828125,0.0
1694476229.342617,-964.35546875,783.69140625,-273.4375,804.6875,0.0
1694476229.3465154,772.94921875,930.17578125,-157.2265625,980.46875,0.0
1694476229.3504138,-803.22265625,-573.73046875,-721.19140625,-508.30078125,0.0
1694476229.354312,-1000.0,-1000.0,-876.953125,-1000.0,0.0
1694476229.3582103,403.3203125,68.84765625,-415.52734375,84.47265625,0.0
1694476229.3621087,-812.5,-791.9921875,-81.54296875,-778.80859375,0.0
1694476229.3660069,-103.02734375,62.01171875,-551.26953125,88.37890625,0.0
1694476229.3699052,-1000.0,-1000.0,-904.78515625,-1000.0,0.0
1694476229.3738036,-193.359375,-244.62890625,-588.37890625,-248.046875,0.0
1694476229.3777018,-802.734375,-809.08203125,-121.09375,-808.10546875,0.0
1694476229.3816001,229.98046875,241.69921875,-382.32421875,241.69921875,0.0
1694476229.385597,-1000.0,-1000.0,-866.69921875,-1000.0,0.0
1694476229.3894954,-269.53125,-439.453125,-709.9609375,-438.96484375,0.0
1694476229.3933938,-807.6171875,-882.32421875,-223.6328125,-880.859375,0.0
1694476229.397292,428.22265625,543.45703125,-243.1640625,578.125,0.0
1694476229.4011903,-1000.0,-1000.0,-818.359375,-1000.0,0.0
1694476229.4050887,-659.66796875,-945.80078125,-828.125,-928.22265625,0.0
1694476229.408987,949.70703125,551.7578125,-328.61328125,582.03125,0.0
1694476229.4128852,905.2734375,-917.96875,-167.96875,-870.60546875,0.0
1694476229.4167836,-610.3515625,-345.703125,-649.4140625,-271.97265625,0.0
1694476229.420682,-1000.0,-1000.0,-859.375,-1000.0,0.0
1694476229.4245803,209.47265625,-46.875,-535.64453125,-43.45703125,0.0
1694476229.4284785,-778.80859375,-791.015625,-181.640625,-779.296875,0.0
1694476229.432479,25.390625,161.1328125,-487.79296875,213.37890625,0.0
1694476229.4363773,-1000.0,-1000.0,-875.9765625,-1000.0,0.0
1694476229.4402757,-242.67578125,-256.8359375,-665.52734375,-265.13671875,0.0
1694476229.4441738,-808.59375,-806.640625,-145.01953125,-802.734375,0.0
1694476229.4480722,239.2578125,278.80859375,-307.12890625,280.76171875,0.0
1694476229.4519706,-1000.0,-1000.0,-853.515625,-1000.0,0.0
1694476229.455869,-359.375,-550.29296875,-770.5078125,-542.48046875,0.0
1694476229.4597673,-845.21484375,-954.1015625,-258.30078125,-952.1484375,0.0
1694476229.4636655,535.15625,679.19921875,-141.6015625,721.19140625,0.0
1694476229.4675639,-1000.0,-872.55859375,-722.16796875,-844.7265625,0.0
1694476229.4714622,-814.94140625,-1000.0,-889.6484375,-1000.0,0.0
1694476229.4753606,745.1171875,331.54296875,-384.765625,352.05078125,0.0
1694476229.4793527,-935.05859375,-836.42578125,-74.70703125,-812.98828125,0.0
1694476229.483251,-377.9296875,-175.29296875,-601.5625,-129.39453125,0.0
1694476229.4871492,-1000.0,-1000.0,-916.50390625,-1000.0,0.0
1694476229.4910476,81.0546875,-148.4375,-531.25,-166.50390625,0.0
1694476229.494946,-769.04296875,-800.29296875,-73.73046875,-797.36328125,0.0
1694476229.4988444,156.73828125,215.8203125,-404.296875,227.5390625,0.0
1694476229.5027425,-1000.0,-1000.0,-903.80859375,-1000.0,0.0
1694476229.506641,-258.30078125,-306.15234375,-661.62109375,-268.5546875,0.0
1694476229.5105393,-804.19921875,-820.80078125,-51.26953125,-806.15234375,0.0
1694476229.5144377,241.2109375,366.69921875,-251.46484375,398.92578125,0.0
1694476229.518336,-1000.0,-1000.0,-862.3046875,-1000.0,0.0
1694476229.5222342,-467.28515625,-691.89453125,-791.50390625,-663.0859375,0.0
1694476229.5262196,-899.90234375,904.296875,-305.6640625,950.1953125,0.0
1694476229.530118,632.8125,835.9375,-242.67578125,875.48828125,0.0
1694476229.5340164,-980.95703125,-697.75390625,-766.6015625,-645.99609375,0.0
1694476229.5379148,-928.7109375,-1000.0,-856.4453125,-1000.0,0.0
1694476229.541813,577.63671875,181.640625,-437.01171875,180.17578125,0.0
1694476229.5457113,-844.7265625,-799.8046875,-79.58984375,-785.15625,0.0
1694476229.5496097,-187.01171875,-34.66796875,-507.8125,1.953125,0.0
1694476229.553508,-1000.0,-1000.0,-884.765625,-1000.0,0.0
1694476229.5574064,-83.49609375,-218.75,-591.30859375,-238.76953125,0.0
1694476229.5613046,-782.71484375,-809.08203125,-195.80078125,-810.546875,0.0
1694476229.565203,216.796875,238.76953125,-413.0859375,240.72265625,0.0
1694476229.5691013,-1000.0,-1000.0,-863.76953125,-1000.0,0.0
1694476229.5730798,-268.06640625,-391.6015625,-732.91015625,-370.1171875,0.0
1694476229.5769782,-802.734375,-856.93359375,-232.91015625,-846.19140625,0.0
1694476229.5808766,341.796875,471.6796875,-262.6953125,516.11328125,0.0
1694476229.5847747,-1000.0,-1000.0,-801.26953125,-1000.0,0.0
1694476229.588673,-563.96484375,-842.28515625,-818.84765625,-822.265625,0.0
1694476229.5925715,-979.98046875,709.9609375,-285.64453125,745.60546875,0.0
1694476229.5964699,812.01171875,989.2578125,-63.96484375,-965.33203125,0.0
1694476229.6003683,-737.3046875,-492.67578125,-618.65234375,-430.6640625,0.0
1694476229.6042666,-1000.0,-1000.0,-894.53125,-1000.0,0.0
1694476229.608165,332.51953125,41.015625,-464.84375,54.19921875,0.0
1694476229.6120632,-801.7578125,-789.0625,-74.70703125,-777.83203125,0.0
1694476229.6159616,-61.5234375,90.33203125,-489.74609375,118.65234375,0.0
1694476229.6199524,-1000.0,-1000.0,-910.15625,-1000.0,0.0
1694476229.6238508,-223.6328125,-248.046875,-634.765625,-251.46484375,0.0
1694476229.6277492,-807.12890625,-808.59375,-95.21484375,-806.640625,0.0
1694476229.6316473,233.3984375,251.46484375,-292.96875,242.1875,0.0
1694476229.6355457,-1000.0,-1000.0,-866.2109375,-1000.0,0.0
1694476229.639444,-269.04296875,-471.6796875,-763.671875,-458.49609375,0.0
1694476229.6433425,-808.10546875,-902.83203125,-98.14453125,-892.578125,0.0
1694476229.6472409,435.546875,591.796875,-98.14453125,611.328125,0.0
1694476229.6511393,-1000.0,-967.28515625,-834.9609375,-976.07421875,0.0
1694476229.6550376,-698.2421875,-992.67578125,-843.26171875,-970.703125,0.0
1694476229.658936,886.71875,486.81640625,-365.234375,518.06640625,0.0
1694476229.6628342,968.26171875,-894.53125,-168.45703125,-847.65625,0.0
1694476229.6668181,-518.06640625,-304.6875,-653.3203125,-230.95703125,0.0
1694476229.6707165,-1000.0,-1000.0,-882.8125,-1000.0,0.0
1694476229.674615,158.69140625,-81.54296875,-524.4140625,-72.265625,0.0
1694476229.6785133,-773.4375,-793.45703125,-195.3125,-783.203125,0.0
1694476229.6824117,80.078125,185.05859375,-505.859375,216.30859375,0.0
1694476229.68631,-1000.0,-1000.0,-858.3984375,-1000.0,0.0
1694476229.6902084,-248.53515625,-269.53125,-624.0234375,-266.6015625,0.0
1694476229.6941068,-805.6640625,-809.08203125,-211.42578125,-802.734375,0.0
1694476229.698005,238.76953125,300.78125,-360.3515625,313.96484375,0.0
1694476229.7019033,-1000.0,-1000.0,-840.33203125,-1000.0,0.0
1694476229.7058017,-370.60546875,-588.37890625,-772.94921875,-577.63671875,0.0
1694476229.7097,-853.02734375,-993.65234375,-279.78515625,-978.515625,0.0
1694476229.7137177,571.77734375,737.79296875,-220.21484375,771.97265625,0.0
1694476229.717616,-1000.0,-814.453125,-761.71875,-788.57421875,0.0
1694476229.7215145,-850.5859375,-1000.0,-868.1640625,-1000.0,0.0
1694476229.7254128,689.453125,304.19921875,-377.44140625,309.5703125,0.0
1694476229.7293112,-891.6015625,-825.68359375,-62.5,-803.7109375,0.0
1694476229.7332096,-288.57421875,-138.671875,-562.01171875,-78.61328125,0.0
1694476229.737108,-1000.0,-1000.0,-895.99609375,-1000.0,0.0
1694476229.7410064,-2.44140625,-182.12890625,-583.49609375,-218.75,0.0
1694476229.7449048,-772.94921875,-805.17578125,-156.73828125,-806.640625,0.0
1694476229.7488031,208.0078125,228.02734375,-407.2265625,233.88671875,0.0
1694476229.7527015,-1000.0,-1000.0,-879.8828125,-1000.0,0.0
1694476229.7566,-264.16015625,-313.4765625,-712.890625,-268.5546875,0.0
1694476229.7605999,-802.24609375,-823.2421875,-169.43359375,-807.12890625,0.0
1694476229.7644982,252.44140625,392.08984375,-251.46484375,419.43359375,0.0
1694476229.7683966,-1000.0,-1000.0,-845.703125,-1000.0,0.0
1694476229.772295,-487.3046875,-737.3046875,-827.1484375,-719.23828125,0.0
1694476229.7761934,-951.66015625,839.84375,-241.2109375,873.046875,0.0
1694476229.7800918,707.03125,886.23046875,-75.1953125,942.3828125,0.0
1694476229.7839901,-849.12109375,-622.0703125,-684.5703125,-559.5703125,0.0
1694476229.7878885,-1000.0,-1000.0,-895.99609375,-1000.0,0.0
1694476229.791787,463.8671875,136.23046875,-383.30078125,139.16015625,0.0
1694476229.7956853,-821.2890625,-794.921875,42.48046875,-780.2734375,0.0
1694476229.7995837,-142.08984375,0.0,-529.78515625,46.875,0.0
1694476229.803482,-1000.0,-1000.0,-918.9453125,-1000.0,0.0
1694476229.8074758,-104.98046875,-226.07421875,-585.9375,-244.140625,0.0
1694476229.8113742,-783.203125,-808.59375,-178.7109375,-808.10546875,0.0
1694476229.8152726,218.75,239.74609375,-417.96875,240.72265625,0.0
1694476229.819171,-1000.0,-1000.0,-867.1875,-1000.0,0.0
1694476229.8230693,-269.53125,-405.2734375,-725.5859375,-389.6484375,0.0
1694476229.8269677,-804.6875,-865.234375,-166.015625,-855.95703125,0.0
1694476229.830866,378.90625,510.25390625,-201.66015625,537.59765625,0.0
1694476229.8347645,-1000.0,-1000.0,-819.3359375,-1000.0,0.0
1694476229.8386629,-592.7734375,-875.9765625,-804.19921875,-870.60546875,0.0
1694476229.8425612,991.2109375,664.55078125,-323.73046875,673.828125,0.0
1694476229.8464596,868.1640625,-975.09765625,-192.87109375,-929.19921875,0.0
1694476229.850358,-639.6484375,-434.5703125,-686.5234375,-369.62890625,0.0
1694476229.8543532,-1000.0,-1000.0,-865.234375,-1000.0,0.0
1694476229.8582516,203.125,-16.6015625,-518.06640625,-9.27734375,0.0
1694476229.86215,-754.39453125,-758.7890625,-166.9921875,-747.55859375,0.0
1694476229.8660483,-84.47265625,63.96484375,-524.4140625,104.4921875,0.0
1694476229.8699467,-1000.0,-1000.0,-842.28515625,-1000.0,0.0
1694476229.873845,140.13671875,125.0,-532.71484375,119.62890625,0.0
1694476229.8777435,-826.171875,-826.171875,-124.0234375,-823.73046875,0.0
1694476229.881642,222.65625,248.046875,-299.31640625,229.98046875,0.0
1694476229.8855405,-1000.0,-1000.0,-821.2890625,-1000.0,0.0
1694476229.8894389,-270.5078125,-505.859375,-760.7421875,-498.046875,0.0
1694476229.8933372,-812.98828125,-925.29296875,-222.65625,-918.45703125,0.0
1694476229.8972356,495.1171875,635.25390625,-207.03125,650.390625,0.0
1694476229.9012225,-1000.0,-923.33984375,-802.24609375,-931.640625,0.0
1694476229.9051208,-785.64453125,-1000.0,-858.88671875,-1000.0,0.0
1694476229.9090192,789.0625,419.921875,-404.78515625,436.03515625,0.0
1694476229.9129176,-967.7734375,-869.140625,-130.37109375,-827.63671875,0.0
1694476229.916816,-437.98828125,-258.7890625,-596.19140625,-181.15234375,0.0
1694476229.9207144,-1000.0,-1000.0,-891.6015625,-1000.0,0.0
1694476229.9246128,125.0,-101.5625,-544.43359375,-92.7734375,0.0
1694476229.9285111,-771.97265625,-794.921875,-2.9296875,-783.203125,0.0
1694476229.9324095,94.7265625,202.63671875,-338.8671875,218.26171875,0.0
1694476229.936308,-1000.0,-1000.0,-925.78125,-1000.0,0.0
1694476229.9402063,-250.0,-284.1796875,-655.76171875,-268.06640625,0.0
1694476229.9441047,-806.640625,-812.98828125,-127.44140625,-803.7109375,0.0
1694476229.9480846,240.72265625,324.70703125,-321.2890625,341.796875,0.0
1694476229.951983,-1000.0,-1000.0,-868.65234375,-1000.0,0.0
1694476229.9558814,-419.43359375,-636.23046875,-757.8125,-619.62890625,0.0
1694476229.9597797,-877.9296875,963.8671875,-264.6484375,983.3984375,0.0
1694476229.9636781,614.74609375,778.80859375,-233.3984375,827.1484375,0.0
1694476229.9675765,-986.81640625,-770.5078125,-755.37109375,-714.84375,0.0
1694476229.971475,-916.50390625,-1000.0,-817.87109375,-1000.0,0.0
1694476229.9753733,602.5390625,254.39453125,-345.703125,253.41796875,0.0
1694476229.9792717,-855.95703125,-813.4765625,-153.3203125,-794.921875,0.0
1694476229.98317,-242.1875,-95.703125,-615.72265625,-52.24609375,0.0
1694476229.9870684,-1000.0,-1000.0,-884.27734375,-1000.0,0.0
1694476229.9909668,-14.6484375,-196.77734375,-587.890625,-233.88671875,0.0
1694476229.994939,-772.94921875,-806.15234375,-177.734375,-809.5703125,0.0
1694476229.9988375,208.984375,234.86328125,-425.29296875,236.81640625,0.0
1694476230.0027359,-1000.0,-1000.0,-861.81640625,-1000.0,0.0
1694476230.0066342,-267.578125,-336.9140625,-699.70703125,-291.9921875,0.0
1694476230.0105326,-801.26953125,-833.0078125,-159.1796875,-817.3828125,0.0
1694476230.0144312,311.5234375,431.15234375,-221.6796875,468.75,0.0
1694476230.0183296,-1000.0,-1000.0,-815.4296875,-1000.0,0.0
1694476230.022228,-509.765625,-757.8125,-813.96484375,-758.7890625,0.0
1694476230.0261264,-944.82421875,821.2890625,-322.265625,828.125,0.0
1694476230.0300248,767.08984375,929.19921875,-199.21875,983.3984375,0.0
1694476230.0339231,-804.19921875,-571.77734375,-715.8203125,-500.48828125,0.0
1694476230.0378215,-1000.0,-1000.0,-873.53515625,-1000.0,0.0
1694476230.0418077,428.22265625,103.02734375,-480.95703125,106.93359375,0.0
1694476230.045706,-814.453125,-790.0390625,-121.09375,-776.3671875,0.0
1694476230.0496044,-123.046875,50.29296875,-520.99609375,84.9609375,0.0
1694476230.0535028,-1000.0,-1000.0,-903.3203125,-1000.0,0.0
1694476230.0574014,-107.91015625,-218.75,-620.1171875,-229.4921875,0.0
1694476230.0612998,-842.7734375,-864.74609375,-108.88671875,-863.28125,0.0
1694476230.0651982,132.8125,152.34375,-281.25,152.83203125,0.0
1694476230.0690966,-1000.0,-1000.0,-859.375,-1000.0,0.0
1694476230.072995,-270.99609375,-428.7109375,-756.8359375,-423.33984375,0.0
1694476230.0768933,-809.5703125,-879.8828125,-178.22265625,-875.9765625,0.0
1694476230.0807917,425.29296875,541.50390625,-209.47265625,572.75390625,0.0
1694476230.08469,-1000.0,-1000.0,-822.265625,-1000.0,0.0
1694476230.0886993,-635.25390625,-909.1796875,-840.8203125,-903.80859375,0.0
1694476230.0925977,965.33203125,616.2109375,-300.29296875,623.046875,0.0
1694476230.096496,897.4609375,-944.82421875,-118.65234375,-892.08984375,0.0
1694476230.1003945,-612.79296875,-388.18359375,-663.57421875,-309.08203125,0.0
1694476230.1042929,-1000.0,-1000.0,-885.25390625,-1000.0,0.0
1694476230.1081913,210.9375,-27.34375,-456.54296875,-12.20703125,0.0
1694476230.1120899,-781.25,-789.0625,-53.7109375,-775.390625,0.0
1694476230.1159883,9.27734375,154.78515625,-492.67578125,199.70703125,0.0
1694476230.1198866,-1000.0,-1000.0,-894.53125,-1000.0,0.0
1694476230.123785,-240.72265625,-256.34765625,-588.8671875,-262.20703125,0.0
1694476230.1276834,-808.10546875,-806.640625,-140.625,-803.22265625,0.0
1694476230.1315818,237.79296875,270.99609375,-358.3984375,252.44140625,0.0
1694476230.1355941,-1000.0,-1000.0,-859.375,-1000.0,0.0
1694476230.1394925,-332.03125,-535.15625,-748.53515625,-522.4609375,0.0
1694476230.1433911,-835.9375,-944.3359375,-243.1640625,-941.89453125,0.0
1694476230.1472895,532.2265625,667.48046875,-236.81640625,701.171875,0.0
1694476230.151188,-1000.0,-894.04296875,-792.96875,-878.41796875,0.0
1694476230.1550863,-804.6875,-1000.0,-842.28515625,-1000.0,0.0
1694476230.1589847,774.90234375,383.30078125,-363.28125,410.64453125,0.0
1694476230.1628833,-966.30859375,-846.19140625,-143.06640625,-819.82421875,0.0
1694476230.1667817,-434.5703125,-198.73046875,-604.00390625,-146.484375,0.0
1694476230.17068,-1000.0,-1000.0,-850.5859375,-1000.0,0.0
1694476230.1745784,96.6796875,-134.27734375,-567.87109375,-145.5078125,0.0
1694476230.1784768,-770.01953125,-797.8515625,-157.2265625,-792.48046875,0.0
1694476230.1824715,145.99609375,212.890625,-438.96484375,224.609375,0.0
1694476230.18637,-1000.0,-1000.0,-897.94921875,-1000.0,0.0
1694476230.1902683,-256.8359375,-292.48046875,-690.4296875,-268.06640625,0.0
1694476230.1941667,-803.7109375,-815.4296875,-143.06640625,-805.17578125,0.0
1694476230.198065,240.234375,343.75,-260.25390625,376.46484375,0.0
1694476230.2019637,-1000.0,-1000.0,-835.44921875,-1000.0,0.0
1694476230.205862,-442.3828125,-661.62109375,-787.59765625,-641.6015625,0.0
1694476230.2097604,-889.16015625,933.10546875,-293.45703125,965.33203125,0.0
1694476230.2136588,629.39453125,819.3359375,-91.30859375,863.76953125,0.0
1694476230.2175574,-981.4453125,-723.14453125,-661.1328125,-664.55078125,0.0
1694476230.2214558,-920.41015625,-1000.0,-893.5546875,-1000.0,0.0
1694476230.2253542,595.21484375,229.00390625,-415.0390625,221.6796875,0.0
1694476230.2293413,-851.07421875,-803.7109375,-117.1875,-788.0859375,0.0
1694476230.2332397,-216.30859375,-55.6640625,-586.9140625,-28.3203125,0.0
1694476230.237138,-1000.0,-1000.0,-907.71484375,-1000.0,0.0
1694476230.2410367,-44.921875,-209.47265625,-562.5,-236.328125,0.0
1694476230.244935,-777.34375,-807.12890625,-116.2109375,-810.05859375,0.0
1694476230.2488334,212.40234375,236.328125,-387.6953125,238.76953125,0.0
1694476230.252732,-1000.0,-1000.0,-887.6953125,-1000.0,0.0
1694476230.2566304,-269.04296875,-356.4453125,-672.8515625,-327.1484375,0.0
1694476230.2605288,-802.24609375,-841.30859375,-85.44921875,-831.0546875,0.0
1694476230.2644272,341.30859375,454.58984375,-252.44140625,494.62890625,0.0
1694476230.2683258,-1000.0,-1000.0,-847.16796875,-1000.0,0.0
1694476230.2722242,-555.6640625,-794.43359375,-808.59375,-785.64453125,0.0
1694476230.2762146,-963.8671875,773.4375,-327.63671875,795.8984375,0.0
1694476230.280113,772.4609375,963.8671875,-229.00390625,-993.1640625,0.0
1694476230.2840114,-803.7109375,-526.85546875,-741.69921875,-469.23828125,0.0
1694476230.2879097,-1000.0,-1000.0,-865.72265625,-1000.0,0.0
1694476230.2918084,399.90234375,79.1015625,-478.515625,87.40234375,0.0
1694476230.2957067,-807.6171875,-788.0859375,-107.91015625,-775.390625,0.0
1694476230.2996051,-78.125,76.66015625,-488.76953125,98.6328125,0.0
1694476230.3035038,-1000.0,-1000.0,-883.7890625,-1000.0,0.0
1694476230.3074021,-188.4765625,-246.58203125,-619.62890625,-249.51171875,0.0
1694476230.3113005,-798.828125,-809.08203125,-179.6875,-807.6171875,0.0
1694476230.315199,229.00390625,243.1640625,-373.53515625,242.67578125,0.0
1694476230.3190975,-1000.0,-1000.0,-864.74609375,-1000.0,0.0
1694476230.3230796,-270.01953125,-456.0546875,-752.9296875,-454.1015625,0.0
1694476230.326978,-808.10546875,-893.06640625,-230.95703125,-889.6484375,0.0
1694476230.3308764,438.4765625,569.3359375,-217.7734375,597.65625,0.0
1694476230.334775,-1000.0,-1000.0,-785.15625,-1000.0,0.0
1694476230.3386734,-649.4140625,-934.5703125,-825.68359375,-924.8046875,0.0
1694476230.3425717,948.73046875,569.3359375,-314.94140625,585.44921875,0.0
1694476230.3464704,927.734375,-913.0859375,-50.29296875,-858.88671875,0.0
1694476230.3503687,-567.3828125,-326.66015625,-571.77734375,-245.1171875,0.0
1694476230.3542671,-1000.0,-1000.0,-890.13671875,-1000.0,0.0
1694476230.3581657,186.03515625,-63.96484375,-512.6953125,-56.15234375,0.0
1694476230.3620641,-774.4140625,-791.015625,-104.98046875,-780.76171875,0.0
1694476230.3659625,63.4765625,175.29296875,-452.63671875,214.84375,0.0
1694476230.3699386,-1000.0,-1000.0,-900.390625,-1000.0,0.0
1694476230.373837,-247.0703125,-258.7890625,-651.3671875,-265.625,0.0
1694476230.3777354,-804.6875,-805.17578125,-122.0703125,-801.7578125,0.0
1694476230.381634,237.3046875,289.55078125,-274.90234375,296.875,0.0
1694476230.3855324,-1000.0,-1000.0,-846.19140625,-1000.0,0.0
1694476230.3894308,-341.796875,-541.9921875,-779.78515625,-538.57421875,0.0
1694476230.3933294,-839.84375,-955.078125,-97.65625,-952.63671875,0.0
1694476230.3972278,537.109375,709.47265625,-65.4296875,738.76953125,0.0
1694476230.4011261,-1000.0,-842.28515625,-810.546875,-828.61328125,0.0
1694476230.4050248,-796.38671875,-1000.0,-854.00390625,-1000.0,0.0
1694476230.4089231,754.39453125,341.30859375,-373.046875,369.140625,0.0
1694476230.4128215,-906.25,-831.0546875,-107.421875,-811.5234375,0.0
1694476230.4167879,-319.82421875,-157.2265625,-604.4921875,-116.2109375,0.0
1694476230.4206862,-1000.0,-1000.0,-891.11328125,-1000.0,0.0
1694476230.4245846,81.0546875,-149.90234375,-550.78125,-178.22265625,0.0
1694476230.4284832,-763.671875,-798.33984375,-154.296875,-798.828125,0.0
1694476230.4323816,189.453125,220.703125,-441.40625,229.00390625,0.0
1694476230.4362803,-1000.0,-1000.0,-860.3515625,-1000.0,0.0
1694476230.4401786,-262.6953125,-305.17578125,-648.4375,-268.5546875,0.0
1694476230.444077,-801.26953125,-819.82421875,-206.0546875,-806.15234375,0.0
1694476230.4479756,239.74609375,375.48828125,-307.6171875,403.80859375,0.0
1694476230.451874,-1000.0,-1000.0,-833.984375,-1000.0,0.0
1694476230.4557724,-456.0546875,-677.24609375,-781.25,-648.4375,0.0
1694476230.459671,-904.296875,913.57421875,-270.01953125,957.51953125,0.0
1694476230.4636722,665.52734375,853.515625,-195.3125,890.13671875,0.0
1694476230.4675705,-939.453125,-667.96875,-737.3046875,-620.60546875,0.0
1694476230.471469,-943.84765625,-1000.0,-868.1640625,-1000.0,0.0
1694476230.4753675,561.03515625,169.921875,-397.94921875,168.9453125,0.0
1694476230.479266,-836.9140625,-797.8515625,-46.38671875,-780.2734375,0.0
1694476230.4831645,-163.0859375,-20.5078125,-514.6484375,39.0625,0.0
1694476230.487063,-1000.0,-1000.0,-883.7890625,-1000.0,0.0
1694476230.4909613,-91.796875,-220.703125,-615.72265625,-243.65234375,0.0
1694476230.49486,-782.71484375,-807.6171875,-146.97265625,-807.12890625,0.0
1694476230.4987583,217.28515625,238.28125,-349.609375,239.2578125,0.0
1694476230.5026567,-1000.0,-1000.0,-870.1171875,-1000.0,0.0
1694476230.5065553,-268.06640625,-382.8125,-734.375,-361.328125,0.0
1694476230.5105588,-802.734375,-853.515625,-177.734375,-844.23828125,0.0
1694476230.5144575,341.796875,490.234375,-201.171875,522.94921875,0.0
1694476230.5183558,-1000.0,-1000.0,-819.82421875,-1000.0,0.0
1694476230.5222542,-562.01171875,-837.890625,-835.9375,-825.1953125,0.0
1694476230.5261528,-983.88671875,717.7734375,-270.99609375,744.62890625,0.0
1694476230.5300512,828.125,996.09375,-30.76171875,-964.35546875,0.0
1694476230.5339499,-720.703125,-479.00390625,-625.9765625,-429.19921875,0.0
1694476230.5378482,-1000.0,-1000.0,-914.0625,-1000.0,0.0
1694476230.5417466,342.7734375,40.0390625,-405.76171875,53.7109375,0.0
1694476230.5456452,-796.875,-787.109375,94.7265625,-776.3671875,0.0
1694476230.5495436,-34.1796875,101.5625,-461.42578125,131.34765625,0.0
1694476230.5534422,-1000.0,-1000.0,-914.55078125,-1000.0,0.0
1694476230.557438,-225.5859375,-250.0,-602.5390625,-253.41796875,0.0
1694476230.5613363,-804.6875,-807.6171875,-158.69140625,-805.6640625,0.0
1694476230.565235,232.91015625,253.41796875,-355.46875,241.69921875,0.0
1694476230.5691333,-1000.0,-1000.0,-855.95703125,-1000.0,0.0
1694476230.5730317,-269.53125,-472.16796875,-737.79296875,-459.9609375,0.0
1694476230.5769303,-809.5703125,-905.2734375,-183.59375,-893.06640625,0.0
1694476230.5808287,458.984375,605.95703125,-188.96484375,616.2109375,0.0
1694476230.5847273,-1000.0,-954.58984375,-808.10546875,-968.75,0.0
1694476230.5886257,-688.4765625,-997.55859375,-823.2421875,-984.375,0.0
1694476230.5925243,902.83203125,484.375,-370.60546875,499.51171875,0.0
1694476230.5964227,967.28515625,-893.5546875,-205.56640625,-845.703125,0.0
1694476230.6003213,-516.6015625,-304.6875,-667.48046875,-232.421875,0.0
1694476230.6043103,-1000.0,-1000.0,-881.8359375,-1000.0,0.0
1694476230.608209,170.41015625,-76.171875,-540.52734375,-68.84765625,0.0
1694476230.6121073,-770.99609375,-792.48046875,-176.26953125,-782.71484375,0.0
1694476230.616006,90.8203125,186.5234375,-479.98046875,216.30859375,0.0
1694476230.6199043,-1000.0,-1000.0,-879.39453125,-1000.0,0.0
1694476230.623803,-250.0,-272.4609375,-659.1796875,-267.08984375,0.0
1694476230.6277013,-804.6875,-810.05859375,-137.6953125,-803.22265625,0.0
1694476230.6316,238.76953125,306.15234375,-262.6953125,326.171875,0.0
1694476230.6354983,-1000.0,-1000.0,-822.75390625,-1000.0,0.0
1694476230.639397,-370.1171875,-600.5859375,-793.45703125,-591.796875,0.0
1694476230.6432953,-853.02734375,997.55859375,-231.4453125,-985.83984375,0.0
1694476230.647194,574.70703125,743.1640625,-190.4296875,775.390625,0.0
1694476230.6511753,-1000.0,-815.91796875,-784.66796875,-792.48046875,0.0
1694476230.655074,-818.84765625,-1000.0,-872.55859375,-1000.0,0.0
1694476230.6589723,729.00390625,317.3828125,-418.45703125,324.70703125,0.0
1694476230.662871,-893.06640625,-824.70703125,-93.26171875,-804.6875,0.0
1694476230.6667693,-281.25,-133.7890625,-567.87109375,-80.078125,0.0
1694476230.670668,-1000.0,-1000.0,-894.53125,-1000.0,0.0
1694476230.6745663,4.39453125,-179.19921875,-552.24609375,-214.35546875,0.0
1694476230.678465,-771.97265625,-804.19921875,-2.9296875,-805.6640625,0.0
1694476230.6823633,207.51953125,227.5390625,-324.70703125,232.91015625,0.0
1694476230.686262,-1000.0,-1000.0,-916.015625,-1000.0,0.0
1694476230.6901603,-264.16015625,-321.2890625,-686.03515625,-268.5546875,0.0
1694476230.694059,-801.7578125,-826.66015625,-150.87890625,-807.12890625,0.0
1694476230.6980429,253.90625,398.4375,-253.90625,423.828125,0.0
1694476230.7019413,-1000.0,-1000.0,-834.47265625,-1000.0,0.0
1694476230.7058399,-491.2109375,-738.28125,-784.1796875,-704.58984375,0.0
1694476230.7097383,-929.6875,851.5625,-263.671875,899.4140625,0.0
1694476230.7136369,710.9375,881.8359375,-208.0078125,916.50390625,0.0
1694476230.7175353,-869.62890625,-639.16015625,-746.58203125,-593.26171875,0.0
1694476230.7214339,-1000.0,-1000.0,-833.984375,-1000.0,0.0
1694476230.7253323,453.61328125,133.7890625,-390.13671875,140.625,0.0
1694476230.7292309,-823.2421875,-796.875,-140.13671875,-781.73828125,0.0
1694476230.7331293,-146.97265625,-7.32421875,-564.453125,41.50390625,0.0
1694476230.737028,-1000.0,-1000.0,-892.578125,-1000.0,0.0
1694476230.7409263,-124.51171875,-230.46875,-608.88671875,-243.1640625,0.0
1694476230.744903,-787.59765625,-810.546875,-188.4765625,-808.59375,0.0
1694476230.7488017,221.19140625,240.234375,-405.2734375,240.72265625,0.0
1694476230.7527,-1000.0,-1000.0,-857.91015625,-1000.0,0.0
1694476230.7565987,-268.5546875,-407.2265625,-730.46875,-385.7421875,0.0
1694476230.760497,-804.19921875,-865.234375,-165.0390625,-854.00390625,0.0
1694476230.7643957,364.74609375,501.953125,-199.21875,534.1796875,0.0
1694476230.768294,-1000.0,-1000.0,-803.7109375,-1000.0,0.0
1694476230.7721927,-592.28515625,-873.046875,-824.21875,-867.67578125,0.0
1694476230.776091,985.3515625,662.59765625,-368.1640625,666.9921875,0.0
1694476230.7799897,880.859375,-967.7734375,-182.12890625,-910.15625,0.0
1694476230.7838883,-638.18359375,-427.24609375,-669.43359375,-336.9140625,0.0
1694476230.7877867,-1000.0,-1000.0,-889.6484375,-1000.0,0.0
1694476230.7917562,260.7421875,11.23046875,-521.484375,12.6953125,0.0
1694476230.7956548,-787.59765625,-787.109375,-141.11328125,-775.390625,0.0
1694476230.7995532,-15.13671875,127.9296875,-479.00390625,171.875,0.0
1694476230.8034518,-1000.0,-1000.0,-894.53125,-1000.0,0.0
1694476230.8073504,-238.28125,-252.9296875,-647.94921875,-258.30078125,0.0
1694476230.8112488,-807.12890625,-806.640625,-65.4296875,-803.7109375,0.0
1694476230.8151474,234.375,261.71875,-202.1484375,241.69921875,0.0
1694476230.8190458,-1000.0,-1000.0,-864.2578125,-1000.0,0.0
1694476230.8229444,-270.01953125,-497.0703125,-784.66796875,-484.86328125,0.0
1694476230.8268428,-811.5234375,-919.43359375,-197.265625,-910.64453125,0.0
1694476230.8307414,480.46875,625.9765625,-187.01171875,643.5546875,0.0
1694476230.8346398,-1000.0,-934.5703125,-815.4296875,-939.453125,0.0
1694476230.838643,-744.140625,-1000.0,-856.93359375,-1000.0,0.0
1694476230.8425417,835.44921875,443.359375,-352.5390625,451.171875,0.0
1694476230.8464403,-990.72265625,-875.48828125,-146.484375,-831.0546875,0.0
1694476230.8503387,-453.61328125,-263.18359375,-645.99609375,-183.59375,0.0
1694476230.8542373,-1000.0,-1000.0,-892.578125,-1000.0,0.0
1694476230.8581357,100.5859375,-122.55859375,-479.00390625,-106.93359375,0.0
1694476230.8620343,-774.4140625,-799.31640625,-64.94140625,-786.62109375,0.0
1694476230.8659327,97.16796875,202.1484375,-472.16796875,220.21484375,0.0
1694476230.8698313,-1000.0,-1000.0,-887.20703125,-1000.0,0.0
1694476230.87373,-250.0,-277.34375,-645.5078125,-267.578125,0.0
1694476230.8776283,-806.15234375,-811.03515625,-172.36328125,-803.22265625,0.0
1694476230.881527,240.234375,325.68359375,-308.10546875,342.28515625,0.0
1694476230.8855228,-1000.0,-1000.0,-839.84375,-1000.0,0.0
1694476230.8894212,-410.64453125,-632.8125,-769.53125,-621.58203125,0.0
1694476230.8933198,-873.046875,971.6796875,-279.296875,990.234375,0.0
1694476230.8972182,600.09765625,763.18359375,-225.5859375,803.22265625,0.0
1694476230.9011168,-1000.0,-792.48046875,-763.671875,-749.0234375,0.0
1694476230.9050155,-875.48828125,-1000.0,-838.8671875,-1000.0,0.0
1694476230.9089139,650.390625,277.83203125,-394.53125,262.6953125,0.0
1694476230.9128125,-863.28125,-817.87109375,-157.71484375,-796.875,0.0
1694476230.916711,-240.234375,-108.3984375,-573.2421875,-55.6640625,0.0
1694476230.9206095,-1000.0,-1000.0,-850.5859375,-1000.0,0.0
1694476230.924508,-23.4375,-203.125,-600.09765625,-233.3984375,0.0
1694476230.9284065,-774.90234375,-808.59375,-148.92578125,-810.546875,0.0
1694476230.9324045,210.44921875,235.83984375,-394.53125,237.79296875,0.0
1694476230.9363031,-1000.0,-1000.0,-895.01953125,-1000.0,0.0
1694476230.9402018,-265.625,-337.40234375,-713.8671875,-302.24609375,0.0
1694476230.9441001,-802.734375,-832.51953125,-124.51171875,-818.84765625,0.0
1694476230.9479988,282.2265625,410.15625,-194.3359375,436.5234375,0.0
1694476230.9518974,-1000.0,-1000.0,-821.77734375,-1000.0,0.0
1694476230.9557958,-538.0859375,-773.92578125,-826.66015625,-768.5546875,0.0
1694476230.9596944,-958.0078125,809.5703125,-327.63671875,821.77734375,0.0
1694476230.963593,749.51171875,905.2734375,-71.2890625,954.58984375,0.0
1694476230.9674914,-830.56640625,-611.81640625,-630.37109375,-549.8046875,0.0
1694476230.97139,-1000.0,-1000.0,-908.203125,-1000.0,0.0
1694476230.9752886,417.48046875,97.65625,-465.33203125,103.02734375,0.0
1694476230.9792786,-814.453125,-791.015625,-145.5078125,-778.3203125,0.0
1694476230.9831772,-129.8828125,49.8046875,-556.640625,79.1015625,0.0
1694476230.9870758,-1000.0,-1000.0,-890.13671875,-1000.0,0.0
1694476230.9909742,-125.9765625,-235.83984375,-585.44921875,-247.55859375,0.0
1694476230.9948728,-786.62109375,-807.12890625,-126.953125,-807.12890625,0.0
1694476230.9987714,221.19140625,240.234375,-348.14453125,241.2109375,0.0
1694476231.0026698,-1000.0,-1000.0,-888.671875,-1000.0,0.0
1694476231.0065684,-270.99609375,-426.7578125,-706.54296875,-409.1796875,0.0
1694476231.010467,-807.12890625,-877.9296875,-91.30859375,-867.67578125,0.0
1694476231.0143657,426.7578125,546.875,-227.05078125,569.3359375,0.0
1694476231.018264,-1000.0,-1000.0,-825.1953125,-1000.0,0.0
1694476231.0221627,-629.8828125,-898.92578125,-818.84765625,-897.94921875,0.0
1694476231.0261457,969.23828125,629.8828125,-345.21484375,632.8125,0.0
1694476231.0300443,897.94921875,-941.89453125,-175.78125,-895.99609375,0.0
1694476231.033943,-616.2109375,-381.34765625,-675.78125,-315.91796875,0.0
1694476231.0378416,-1000.0,-1000.0,-861.81640625,-1000.0,0.0
1694476231.04174,230.95703125,-9.27734375,-502.44140625,-2.9296875,0.0
1694476231.0456386,-782.71484375,-785.64453125,-106.93359375,-774.90234375,0.0
1694476231.0495372,7.8125,151.85546875,-458.0078125,198.2421875,0.0
1694476231.0534356,-1000.0,-1000.0,-878.90625,-1000.0,0.0
1694476231.0573342,-240.72265625,-256.34765625,-642.08984375,-262.20703125,0.0
1694476231.0612328,-808.59375,-806.15234375,-195.3125,-803.7109375,0.0
1694476231.0651314,237.79296875,271.97265625,-349.12109375,251.953125,0.0
1694476231.0690298,-1000.0,-1000.0,-853.02734375,-1000.0,0.0
1694476231.0730062,-332.03125,-535.64453125,-765.13671875,-529.296875,0.0
1694476231.0769045,-835.44921875,-944.82421875,-240.72265625,-948.73046875,0.0
1694476231.0808032,526.3671875,668.45703125,-192.3828125,715.33203125,0.0
1694476231.0847018,-1000.0,-903.80859375,-756.34765625,-873.046875,0.0
1694476231.0886004,-764.16015625,-1000.0,-842.7734375,-1000.0,0.0
1694476231.0924988,816.40625,426.26953125,-357.91015625,438.96484375,0.0
1694476231.0963974,-974.12109375,-850.5859375,-23.92578125,-821.77734375,0.0
1694476231.100296,-432.6171875,-206.0546875,-498.53515625,-145.01953125,0.0
1694476231.1041946,-1000.0,-1000.0,-899.4140625,-1000.0,0.0
1694476231.108093,98.6328125,-127.9296875,-554.19921875,-134.765625,0.0
1694476231.1119916,-771.484375,-796.875,-125.48828125,-790.0390625,0.0
1694476231.1158903,125.9765625,209.9609375,-442.3828125,223.14453125,0.0
1694476231.1198688,-1000.0,-1000.0,-897.94921875,-1000.0,0.0
1694476231.1237674,-253.90625,-285.64453125,-679.19921875,-268.06640625,0.0
1694476231.1276658,-805.17578125,-812.98828125,-135.25390625,-804.6875,0.0
1694476231.1315644,240.72265625,339.35546875,-267.08984375,369.62890625,0.0
1694476231.135463,-1000.0,-1000.0,-829.58984375,-1000.0,0.0
1694476231.1393616,-437.01171875,-646.97265625,-795.41015625,-634.765625,0.0
1694476231.14326,-886.71875,951.171875,-140.625,973.6328125,0.0
1694476231.1471586,627.44140625,804.19921875,-53.7109375,847.16796875,0.0
1694476231.1510572,-978.515625,-737.3046875,-780.2734375,-688.96484375,0.0
1694476231.1549559,-929.19921875,-1000.0,-857.421875,-1000.0,0.0
1694476231.1588542,581.54296875,230.46875,-374.0234375,237.3046875,0.0
1694476231.1627529,-845.21484375,-802.24609375,-137.20703125,-788.57421875,0.0
1694476231.1667235,-211.9140625,-50.78125,-615.72265625,-24.4140625,0.0
1694476231.170622,-1000.0,-1000.0,-884.765625,-1000.0,0.0
1694476231.1745207,-17.08984375,-206.0546875,-570.3125,-236.81640625,0.0
1694476231.178419,-770.99609375,-805.17578125,-188.96484375,-809.08203125,0.0
1694476231.1823177,208.984375,235.3515625,-441.40625,238.28125,0.0
1694476231.1862164,-1000.0,-1000.0,-844.23828125,-1000.0,0.0
1694476231.190115,-268.5546875,-347.16796875,-668.9453125,-320.3125,0.0
1694476231.1940136,-802.734375,-836.9140625,-210.9375,-827.1484375,0.0
1694476231.197912,328.125,437.01171875,-285.64453125,473.14453125,0.0
1694476231.2018106,-1000.0,-1000.0,-820.3125,-1000.0,0.0
1694476231.2057092,-557.12890625,-791.50390625,-799.8046875,-784.66796875,0.0
1694476231.2096078,-966.796875,772.94921875,-314.94140625,791.9921875,0.0
1694476231.213612,775.390625,964.35546875,-170.8984375,-992.67578125,0.0
1694476231.2175107,-807.12890625,-532.71484375,-697.75390625,-475.09765625,0.0
1694476231.2214093,-1000.0,-1000.0,-873.53515625,-1000.0,0.0
1694476231.225308,419.921875,103.02734375,-440.4296875,109.375,0.0
1694476231.2292066,-811.5234375,-788.0859375,-85.44921875,-772.94921875,0.0
1694476231.2331052,-102.05078125,60.546875,-494.62890625,96.6796875,0.0
1694476231.2370036,-1000.0,-1000.0,-887.6953125,-1000.0,0.0
1694476231.2409022,-150.87890625,-245.1171875,-642.578125,-249.51171875,0.0
1694476231.2448008,-790.52734375,-810.05859375,-163.0859375,-807.6171875,0.0
1694476231.2486994,224.12109375,242.1875,-336.9140625,242.67578125,0.0
1694476231.252598,-1000.0,-1000.0,-872.55859375,-1000.0,0.0
1694476231.2564964,-270.99609375,-458.0078125,-758.7890625,-453.61328125,0.0
1694476231.2604945,-807.6171875,-893.5546875,-229.4921875,-888.18359375,0.0
1694476231.264393,438.4765625,566.40625,-235.83984375,592.28515625,0.0
1694476231.2682917,-1000.0,-1000.0,-808.10546875,-1000.0,0.0
1694476231.2721903,-649.90234375,-929.6875,-834.47265625,-914.55078125,0.0
1694476231.276089,959.47265625,581.0546875,-304.6875,602.5390625,0.0
1694476231.2799873,898.4375,-923.33984375,-50.78125,-871.09375,0.0
1694476231.283886,-611.81640625,-347.16796875,-608.88671875,-268.06640625,0.0
1694476231.2877846,-1000.0,-1000.0,-918.9453125,-1000.0,0.0
1694476231.2916832,192.87109375,-56.15234375,-437.5,-36.62109375,0.0
1694476231.2955818,-780.2734375,-791.9921875,91.796875,-777.83203125,0.0
1694476231.2994804,27.34375,162.59765625,-412.59765625,212.40234375,0.0
1694476231.303379,-1000.0,-1000.0,-901.85546875,-1000.0,0.0
1694476231.3073695,-242.67578125,-256.34765625,-622.55859375,-264.6484375,0.0
1694476231.3112679,-808.10546875,-806.15234375,-178.22265625,-802.734375,0.0
1694476231.3151665,242.67578125,280.2734375,-358.3984375,281.25,0.0
1694476231.319065,-1000.0,-1000.0,-868.1640625,-1000.0,0.0
1694476231.3229637,-311.5234375,-520.99609375,-752.9296875,-499.51171875,0.0
1694476231.3268623,-946.77734375,970.703125,-272.4609375,937.5,0.0
1694476231.330761,353.515625,553.7109375,-271.97265625,501.46484375,0.0
1694476231.3346596,-1000.0,-858.88671875,-773.4375,-831.0546875,0.0
1694476231.338558,-801.26953125,-1000.0,-834.47265625,-1000.0,0.0
1694476231.3424566,766.11328125,348.14453125,-395.01953125,348.6328125,0.0
1694476231.3463552,-958.49609375,-842.7734375,-184.08203125,-817.3828125,0.0
1694476231.3502538,-408.69140625,-186.03515625,-616.69921875,-138.671875,0.0
1694476231.3542464,-1000.0,-1000.0,-884.765625,-1000.0,0.0
1694476231.358145,50.78125,-160.64453125,-580.56640625,-187.01171875,0.0
1694476231.3620436,-768.06640625,-796.38671875,-209.47265625,-795.8984375,0.0
1694476231.3659422,131.34765625,198.2421875,-476.07421875,211.9140625,0.0
1694476231.3698409,-1000.0,-1000.0,-872.0703125,-1000.0,0.0
1694476231.3737395,-167.96875,-219.23828125,-665.52734375,-179.19921875,0.0
1694476231.377638,-815.91796875,-832.03125,-207.03125,-816.89453125,0.0
1694476231.3815365,241.69921875,343.75,-298.33984375,380.859375,0.0
1694476231.385435,-1000.0,-1000.0,-802.24609375,-1000.0,0.0
1694476231.3893337,-467.28515625,-704.58984375,-804.19921875,-674.8046875,0.0
1694476231.3932323,-899.4140625,895.5078125,-305.17578125,941.89453125,0.0
1694476231.397131,631.8359375,810.546875,-218.75,853.515625,0.0
1694476231.4011157,-977.5390625,-732.91015625,-756.8359375,-675.29296875,0.0
1694476231.4050143,-938.96484375,-1000.0,-877.44140625,-1000.0,0.0
1694476231.408913,574.21875,177.24609375,-458.0078125,170.41015625,0.0
1694476231.4128115,-857.91015625,-807.12890625,-111.81640625,-792.48046875,0.0
1694476231.4167101,-232.91015625,-65.91796875,-535.64453125,-33.69140625,0.0
1694476231.4206088,-1000.0,-1000.0,-891.6015625,-1000.0,0.0
1694476231.4245074,-104.4921875,-219.23828125,-592.28515625,-234.86328125,0.0
1694476231.428406,-790.52734375,-812.5,-16.11328125,-812.98828125,0.0
1694476231.4323046,220.21484375,240.234375,-278.3203125,241.2109375,0.0
1694476231.436203,-1000.0,-1000.0,-918.45703125,-1000.0,0.0
1694476231.4401016,-267.08984375,-395.01953125,-721.6796875,-372.0703125,0.0
1694476231.4440002,-804.19921875,-856.4453125,-180.17578125,-844.7265625,0.0
1694476231.4479787,327.1484375,442.87109375,-264.16015625,479.4921875,0.0
1694476231.4518774,-1000.0,-1000.0,-851.5625,-1000.0,0.0
1694476231.455776,-596.19140625,-866.69921875,-813.4765625,-846.6796875,0.0
1694476231.4596746,-988.76953125,690.91796875,-313.4765625,719.7265625,0.0
1694476231.4635732,774.4140625,950.1953125,-214.35546875,-998.53515625,0.0
1694476231.4674718,-789.0625,-558.59375,-724.609375,-488.76953125,0.0
1694476231.4713702,-1000.0,-1000.0,-854.00390625,-1000.0,0.0
1694476231.4752688,307.12890625,28.80859375,-437.01171875,41.9921875,0.0
1694476231.4791675,-806.15234375,-794.921875,-183.10546875,-782.2265625,0.0
1694476231.483066,-84.9609375,73.73046875,-568.359375,103.515625,0.0
1694476231.4869647,-1000.0,-1000.0,-899.90234375,-1000.0,0.0
1694476231.4908633,-230.95703125,-245.1171875,-640.13671875,-249.0234375,0.0
1694476231.494835,-811.03515625,-810.546875,-205.078125,-808.10546875,0.0
1694476231.4987335,235.3515625,242.67578125,-410.64453125,243.1640625,0.0
1694476231.5026321,-1000.0,-1000.0,-867.1875,-1000.0,0.0
1694476231.5065308,-268.5546875,-483.3984375,-739.2578125,-467.28515625,0.0
1694476231.5104294,-808.10546875,-906.25,-206.54296875,-894.53125,0.0
1694476231.514328,436.5234375,569.3359375,-227.5390625,598.6328125,0.0
1694476231.5182266,-1000.0,-990.234375,-791.50390625,-986.328125,0.0
1694476231.5221252,-679.6875,-979.98046875,-830.56640625,-967.28515625,0.0
1694476231.5260236,918.9453125,500.9765625,-393.06640625,519.04296875,0.0
1694476231.5299222,934.5703125,-903.3203125,-189.94140625,-849.609375,0.0
1694476231.5338209,-557.6171875,-319.3359375,-661.1328125,-235.3515625,0.0
1694476231.5377195,-1000.0,-1000.0,-896.484375,-1000.0,0.0
1694476231.5416927,146.97265625,-81.54296875,-543.9453125,-79.58984375,0.0
1694476231.5455914,-778.3203125,-794.921875,-145.5078125,-785.15625,0.0
1694476231.54949,58.10546875,176.26953125,-469.23828125,217.7734375,0.0
1694476231.5533886,-1000.0,-1000.0,-901.85546875,-1000.0,0.0
1694476231.5572872,-246.09375,-260.25390625,-676.26953125,-265.13671875,0.0
1694476231.5611858,-807.12890625,-806.640625,-81.54296875,-802.734375,0.0
1694476231.5650845,239.2578125,290.0390625,-193.359375,295.41015625,0.0
1694476231.568983,-1000.0,-1000.0,-851.07421875,-1000.0,0.0
1694476231.5728817,-370.60546875,-571.2890625,-807.12890625,-556.640625,0.0
1694476231.5767803,-849.12109375,-976.07421875,-166.50390625,-959.9609375,0.0
1694476231.580679,537.109375,713.8671875,-93.75,733.88671875,0.0
1694476231.5845776,-1000.0,-839.84375,-791.015625,-826.171875,0.0
1694476231.5885844,-818.84765625,-1000.0,-860.83984375,-1000.0,0.0
1694476231.592483,760.25390625,344.23828125,-371.09375,345.703125,0.0
1694476231.5963817,-979.00390625,-889.16015625,-125.48828125,-866.69921875,0.0
1694476231.6002803,-433.59375,-249.0234375,-606.93359375,-205.56640625,0.0
1694476231.6041791,-1000.0,-1000.0,-892.08984375,-1000.0,0.0
1694476231.6080778,38.57421875,-164.55078125,-495.1171875,-188.4765625,0.0
1694476231.6119764,-773.4375,-804.19921875,-86.42578125,-804.19921875,0.0
1694476231.615875,191.89453125,222.65625,-450.68359375,230.46875,0.0
1694476231.6197736,-1000.0,-1000.0,-878.90625,-1000.0,0.0
1694476231.6236722,-262.20703125,-298.828125,-673.828125,-268.5546875,0.0
1694476231.6275709,-802.24609375,-817.87109375,-180.6640625,-806.640625,0.0
1694476231.6314695,240.234375,377.9296875,-296.38671875,407.2265625,0.0
1694476231.635468,-1000.0,-1000.0,-831.54296875,-1000.0,0.0
1694476231.6393666,-464.84375,-712.890625,-783.203125,-695.80078125,0.0
1694476231.6432652,-907.2265625,880.37109375,-293.9453125,913.57421875,0.0
1694476231.6471639,666.015625,860.3515625,-208.0078125,893.06640625,0.0
1694476231.6510625,-946.2890625,-672.36328125,-740.234375,-630.859375,0.0
1694476231.654961,-932.12890625,-1000.0,-841.30859375,-1000.0,0.0
1694476231.6588597,577.1484375,182.6171875,-420.8984375,170.41015625,0.0
1694476231.6627584,-837.890625,-797.8515625,-133.7890625,-782.71484375,0.0
1694476231.666657,-159.66796875,-20.01953125,-529.296875,20.5078125,0.0
1694476231.6705556,-1000.0,-1000.0,-857.91015625,-1000.0,0.0
1694476231.6744542,-88.37890625,-221.19140625,-600.5859375,-241.2109375,0.0
1694476231.6783528,-781.25,-808.10546875,-95.703125,-808.59375,0.0
1694476231.6823447,217.28515625,238.28125,-354.98046875,240.234375,0.0
1694476231.6862433,-1000.0,-1000.0,-890.625,-1000.0,0.0
1694476231.690142,-268.06640625,-382.32421875,-734.375,-361.81640625,0.0
1694476231.6940405,-802.734375,-854.4921875,-158.203125,-844.7265625,0.0
1694476231.6979392,345.703125,495.60546875,-198.2421875,525.87890625,0.0
1694476231.7018378,-1000.0,-1000.0,-805.17578125,-1000.0,0.0
1694476231.7057364,-562.01171875,-820.80078125,-824.70703125,-817.87109375,0.0
1694476231.709635,-985.83984375,737.3046875,-333.0078125,751.953125,0.0
1694476231.7135336,833.984375,997.55859375,1.953125,-960.9375,0.0
1694476231.7174323,-700.1953125,-467.28515625,-572.75390625,-416.015625,0.0
1694476231.721331,-1000.0,-1000.0,-913.0859375,-1000.0,0.0
1694476231.7252295,299.31640625,22.94921875,-462.890625,32.2265625,0.0
1694476231.729215,-790.52734375,-787.59765625,-109.375,-777.34375,0.0
1694476231.7331135,-29.296875,114.74609375,-509.27734375,154.296875,0.0
1694476231.7370121,-1000.0,-1000.0,-901.3671875,-1000.0,0.0
1694476231.7409108,-192.87109375,-251.46484375,-626.46484375,-255.859375,0.0
1694476231.7448094,-795.41015625,-807.12890625,-145.5078125,-803.7109375,0.0
1694476231.748708,228.02734375,253.41796875,-344.7265625,241.2109375,0.0
1694476231.7526069,-1000.0,-1000.0,-878.41796875,-1000.0,0.0
1694476231.7565055,-270.5078125,-477.5390625,-729.4921875,-458.0078125,0.0
1694476231.760404,-810.546875,-908.203125,-112.79296875,-893.06640625,0.0
1694476231.7643027,466.30859375,609.375,-208.0078125,617.67578125,0.0
1694476231.7682014,-1000.0,-955.078125,-818.359375,-971.6796875,0.0
1694476231.7721,-701.66015625,-993.1640625,-835.44921875,-972.65625,0.0
1694476231.776087,882.8125,484.86328125,-385.25390625,508.7890625,0.0
1694476231.7799857,990.72265625,-878.90625,-194.82421875,-833.0078125,0.0
1694476231.7838845,-507.32421875,-303.7109375,-665.0390625,-223.14453125,0.0
1694476231.7877831,-1000.0,-1000.0,-858.88671875,-1000.0,0.0
1694476231.7916818,231.93359375,3.90625,-500.9765625,15.13671875,0.0
1694476231.7955804,-782.71484375,-803.7109375,-90.8203125,-791.9921875,0.0
1694476231.799479,93.75,188.96484375,-423.828125,216.30859375,0.0
1694476231.8033776,-1000.0,-1000.0,-883.30078125,-1000.0,0.0
1694476231.8072762,-250.48828125,-268.06640625,-654.78515625,-266.6015625,0.0
1694476231.8111749,-805.6640625,-808.59375,-171.38671875,-803.22265625,0.0
1694476231.8150737,239.74609375,301.26953125,-310.546875,318.84765625,0.0
1694476231.8189723,-1000.0,-1000.0,-846.6796875,-1000.0,0.0
1694476231.8229513,-393.06640625,-610.83984375,-786.62109375,-586.9140625,0.0
1694476231.82685,-862.3046875,989.74609375,-257.32421875,-990.234375,0.0
1694476231.8307486,571.77734375,741.69921875,-189.94140625,796.38671875,0.0
1694476231.8346472,-1000.0,-810.546875,-756.34765625,-786.1328125,0.0
1694476231.8385458,-891.6015625,-1000.0,-846.6796875,-1000.0,0.0
1694476231.8424447,640.13671875,284.1796875,-361.328125,391.11328125,0.0
1694476231.8463433,-892.08984375,-828.61328125,-30.2734375,-813.96484375,0.0
1694476231.850242,-308.10546875,-150.390625,-504.39453125,-81.54296875,0.0
1694476231.8541405,-1000.0,-1000.0,-910.64453125,-1000.0,0.0
1694476231.8580391,5.37109375,-178.22265625,-588.8671875,-210.44921875,0.0
1694476231.8619378,-772.94921875,-806.15234375,-95.703125,-805.6640625,0.0
1694476231.8658364,207.51953125,228.515625,-379.8828125,233.3984375,0.0
1694476231.8698087,-1000.0,-1000.0,-903.3203125,-1000.0,0.0
1694476231.8737073,-263.671875,-336.9140625,-705.078125,-283.203125,0.0
1694476231.8776062,-801.7578125,-832.51953125,-172.36328125,-812.01171875,0.0
1694476231.8815048,244.62890625,395.01953125,-265.625,425.78125,0.0
1694476231.8854034,-1000.0,-1000.0,-834.9609375,-1000.0,0.0
1694476231.889302,-481.93359375,-731.93359375,-826.171875,-694.3359375,0.0
1694476231.8932006,-928.22265625,855.46875,-167.48046875,909.1796875,0.0
1694476231.8970993,715.8203125,881.8359375,-45.8984375,916.50390625,0.0
1694476231.900998,-860.83984375,-637.6953125,-761.23046875,-592.7734375,0.0
1694476231.9048967,-1000.0,-1000.0,-876.953125,-1000.0,0.0
1694476231.9087954,448.2421875,134.27734375,-432.12890625,152.34375,0.0
1694476231.912694,-821.77734375,-796.875,-125.9765625,-781.25,0.0
1694476231.9166586,-143.06640625,-7.8125,-568.359375,36.62109375,0.0
1694476231.9205573,-1000.0,-1000.0,-888.671875,-1000.0,0.0
1694476231.924456,-124.51171875,-228.02734375,-577.63671875,-242.67578125,0.0
1694476231.9283545,-787.59765625,-810.05859375,-171.38671875,-808.10546875,0.0
1694476231.9322531,221.19140625,240.234375,-411.62109375,240.234375,0.0
1694476231.936152,-1000.0,-1000.0,-849.609375,-1000.0,0.0
1694476231.9400506,-268.5546875,-411.1328125,-675.29296875,-370.60546875,0.0
1694476231.9439492,-805.17578125,-866.69921875,-231.4453125,-847.65625,0.0
1694476231.9478478,368.65234375,503.90625,-284.1796875,530.76171875,0.0
1694476231.9517465,-1000.0,-1000.0,-820.80078125,-1000.0,0.0
1694476231.9556453,-626.953125,-889.16015625,-832.51953125,-864.74609375,0.0
1694476231.959544,970.21484375,649.4140625,-359.375,679.6875,0.0
1694476231.9635425,868.65234375,-979.4921875,-166.50390625,-927.24609375,0.0
1694476231.9674413,-666.9921875,-451.171875,-659.1796875,-370.60546875,0.0
1694476231.97134,-1000.0,-1000.0,-892.578125,-1000.0,0.0
1694476231.9752386,265.625,14.6484375,-467.7734375,27.83203125,0.0
1694476231.9791372,-788.57421875,-788.0859375,-45.41015625,-774.4140625,0.0
1694476231.9830358,-15.13671875,116.2109375,-442.87109375,170.8984375,0.0
1694476231.9869347,-1000.0,-1000.0,-899.90234375,-1000.0,0.0
1694476231.9908333,-238.28125,-251.46484375,-653.80859375,-258.30078125,0.0
1694476231.994732,-808.10546875,-808.10546875,-168.45703125,-803.7109375,0.0
1694476231.9986305,235.83984375,262.20703125,-325.68359375,241.69921875,0.0
1694476232.0025294,-1000.0,-1000.0,-870.60546875,-1000.0,0.0
1694476232.006428,-291.9921875,-512.6953125,-792.96875,-485.3515625,0.0
1694476232.0104287,-818.359375,-925.29296875,-228.515625,-907.2265625,0.0
1694476232.0143273,473.6328125,619.62890625,-203.61328125,631.34765625,0.0
1694476232.018226,-1000.0,-949.70703125,-805.6640625,-967.7734375,0.0
1694476232.0221245,-724.609375,-1000.0,-850.09765625,-976.5625,0.0
1694476232.0260234,855.95703125,468.75,-349.609375,504.39453125,0.0
1694476232.029922,999.51171875,-880.859375,-85.44921875,-837.890625,0.0
1694476232.0338206,-462.40234375,-271.484375,-604.4921875,-187.98828125,0.0
1694476232.0377192,-1000.0,-1000.0,-927.734375,-1000.0,0.0
1694476232.041618,101.07421875,-116.69921875,-492.67578125,-101.5625,0.0
1694476232.0455167,-774.4140625,-798.828125,35.15625,-785.64453125,0.0
1694476232.0494153,96.6796875,201.66015625,-418.9453125,219.23828125,0.0
1694476232.053314,-1000.0,-1000.0,-914.55078125,-1000.0,0.0
1694476232.0573175,-250.0,-276.85546875,-655.2734375,-267.08984375,0.0
1694476232.061216,-806.640625,-810.546875,-164.0625,-803.22265625,0.0
1694476232.0651147,240.72265625,313.4765625,-307.12890625,332.03125,0.0
1694476232.0690136,-1000.0,-1000.0,-849.12109375,-1000.0,0.0
1694476232.0729122,-416.015625,-625.48828125,-775.87890625,-600.09765625,0.0
1694476232.0768108,-875.48828125,975.09765625,-230.95703125,999.0234375,0.0
1694476232.0807097,604.98046875,763.671875,-129.39453125,809.5703125,0.0
1694476232.0846083,-993.65234375,-785.64453125,-721.19140625,-733.3984375,0.0
1694476232.088507,-912.109375,-1000.0,-851.07421875,-1000.0,0.0
1694476232.0924056,604.4921875,258.30078125,-398.92578125,259.27734375,0.0
1694476232.0963044,-855.46875,-817.3828125,-137.20703125,-796.875,0.0
1694476232.100203,-243.1640625,-114.74609375,-585.44921875,-65.4296875,0.0
1694476232.1041892,-1000.0,-1000.0,-892.08984375,-1000.0,0.0
1694476232.1080878,-4.39453125,-185.546875,-586.42578125,-217.28515625,0.0
1694476232.1119866,-771.97265625,-804.19921875,-174.31640625,-805.17578125,0.0
1694476232.1158853,208.0078125,233.3984375,-424.31640625,233.3984375,0.0
1694476232.1197839,-1000.0,-1000.0,-871.58203125,-1000.0,0.0
1694476232.1236827,-266.11328125,-329.58984375,-685.05859375,-269.04296875,0.0
1694476232.1275814,-802.24609375,-829.58984375,-166.9921875,-808.59375,0.0
1694476232.13148,282.2265625,410.15625,-233.88671875,447.75390625,0.0
1694476232.1353788,-1000.0,-1000.0,-780.2734375,-1000.0,0.0
1694476232.1392775,-515.625,-752.9296875,-810.546875,-729.4921875,0.0
1694476232.143176,-948.2421875,833.49609375,-317.87109375,869.140625,0.0
1694476232.147075,753.90625,902.83203125,-205.078125,945.3125,0.0
1694476232.1510534,-833.984375,-618.1640625,-740.234375,-558.10546875,0.0
1694476232.154952,-1000.0,-1000.0,-883.7890625,-1000.0,0.0
1694476232.1588507,469.23828125,138.671875,-457.51953125,143.06640625,0.0
1694476232.1627495,-820.3125,-791.9921875,-78.125,-777.34375,0.0
1694476232.1666481,-129.8828125,23.92578125,-509.765625,64.94140625,0.0
1694476232.1705468,-1000.0,-1000.0,-892.08984375,-1000.0,0.0
1694476232.1744456,-125.48828125,-236.81640625,-619.62890625,-246.09375,0.0
1694476232.1783442,-786.62109375,-809.5703125,-29.296875,-806.640625,0.0
1694476232.1822429,221.19140625,240.72265625,-236.328125,240.72265625,0.0
1694476232.1861417,-1000.0,-1000.0,-904.78515625,-1000.0,0.0
1694476232.1900403,-269.53125,-418.45703125,-724.12109375,-391.11328125,0.0
1694476232.193939,-805.6640625,-871.58203125,-135.7421875,-857.91015625,0.0
1694476232.1979215,400.390625,521.484375,-210.9375,547.36328125,0.0
1694476232.2018201,-1000.0,-1000.0,-841.30859375,-1000.0,0.0
1694476232.2057188,-618.65234375,-885.25390625,-807.6171875,-849.12109375,0.0
1694476232.2096176,975.09765625,651.3671875,-301.26953125,691.89453125,0.0
1694476232.2135162,885.25390625,-963.8671875,-159.1796875,-909.66796875,0.0
1694476232.2174149,-638.18359375,-421.38671875,-672.8515625,-330.56640625,0.0
1694476232.2213137,-1000.0,-1000.0,-860.83984375,-1000.0,0.0
1694476232.2252123,259.765625,-0.9765625,-447.75390625,22.4609375,0.0
1694476232.229111,-787.59765625,-787.59765625,-145.01953125,-773.4375,0.0
1694476232.2330098,-15.13671875,139.16015625,-523.92578125,180.6640625,0.0
1694476232.2369084,-1000.0,-1000.0,-900.390625,-1000.0,0.0
1694476232.2408073,-238.28125,-254.39453125,-647.94921875,-259.765625,0.0
1694476232.2447822,-808.10546875,-806.640625,-173.828125,-803.22265625,0.0
1694476232.248681,236.328125,265.625,-355.46875,241.69921875,0.0
1694476232.2525797,-1000.0,-1000.0,-868.1640625,-1000.0,0.0
1694476232.2564783,-295.41015625,-515.625,-756.8359375,-487.3046875,0.0
1694476232.2603772,-822.265625,-931.15234375,-209.9609375,-921.38671875,0.0
1694476232.2642758,510.7421875,647.4609375,-189.94140625,680.6640625,0.0
1694476232.2681746,-1000.0,-921.875,-760.25390625,-905.76171875,0.0
1694476232.2720733,-749.51171875,-1000.0,-833.49609375,-1000.0,0.0
1694476232.275972,830.56640625,446.2890625,-393.5546875,468.75,0.0
1694476232.2798707,-976.5625,-869.140625,-144.53125,-827.63671875,0.0
1694476232.2837694,-431.640625,-250.9765625,-622.55859375,-167.48046875,0.0
1694476232.287668,-1000.0,-1000.0,-900.87890625,-1000.0,0.0
1694476232.2916465,101.5625,-111.81640625,-553.22265625,-101.07421875,0.0
1694476232.295545,-772.4609375,-796.38671875,-131.8359375,-784.1796875,0.0
1694476232.299444,107.421875,208.0078125,-434.5703125,220.703125,0.0
1694476232.3033426,-1000.0,-1000.0,-897.94921875,-1000.0,0.0
1694476232.3072414,-232.421875,-265.13671875,-683.10546875,-249.51171875,0.0
1694476232.31114,-861.328125,-868.65234375,-123.53515625,-859.86328125,0.0
1694476232.3150387,150.87890625,242.67578125,-225.5859375,265.13671875,0.0
1694476232.3189375,-1000.0,-1000.0,-841.796875,-1000.0,0.0
1694476232.3228362,-393.06640625,-621.58203125,-825.68359375,-598.6328125,0.0
1694476232.326735,-868.1640625,979.00390625,-176.7578125,-998.046875,0.0
1694476232.3306336,603.515625,763.671875,-79.1015625,807.6171875,0.0
1694476232.3345325,-987.79296875,-779.78515625,-785.64453125,-732.421875,0.0
1694476232.3385334,-918.45703125,-1000.0,-873.53515625,-1000.0,0.0
1694476232.342432,598.6328125,238.76953125,-364.74609375,251.953125,0.0
1694476232.346331,-853.515625,-806.640625,-81.0546875,-791.50390625,0.0
1694476232.3502295,-245.60546875,-77.63671875,-576.66015625,-41.50390625,0.0
1694476232.3541284,-1000.0,-1000.0,-895.01953125,-1000.0,0.0
1694476232.358027,11.23046875,-183.10546875,-524.90234375,-211.9140625,0.0
1694476232.3619258,-770.01953125,-801.26953125,-59.08203125,-802.734375,0.0
1694476232.3658245,206.54296875,232.421875,-396.484375,233.3984375,0.0
1694476232.3697233,-1000.0,-1000.0,-886.23046875,-1000.0,0.0
1694476232.373622,-268.06640625,-331.54296875,-686.03515625,-292.48046875,0.0
1694476232.3775206,-801.26953125,-831.0546875,-217.28515625,-817.3828125,0.0
1694476232.3814194,315.4296875,431.640625,-312.01171875,467.28515625,0.0
1694476232.3854141,-1000.0,-1000.0,-831.54296875,-1000.0,0.0
1694476232.3893127,-509.765625,-750.48828125,-800.29296875,-741.69921875,0.0
1694476232.3932116,-940.91796875,836.9140625,-310.05859375,850.09765625,0.0
1694476232.3971102,755.859375,912.59765625,-214.35546875,970.21484375,0.0
1694476232.401009,-825.1953125,-600.09765625,-729.00390625,-520.01953125,0.0
1694476232.4049077,-1000.0,-1000.0,-848.14453125,-1000.0,0.0
1694476232.4088066,461.42578125,131.34765625,-432.6171875,129.39453125,0.0
1694476232.4127052,-819.3359375,-789.55078125,-139.16015625,-775.87890625,0.0
1694476232.4166038,-129.8828125,38.0859375,-520.5078125,76.66015625,0.0
1694476232.4205027,-1000.0,-1000.0,-851.5625,-1000.0,0.0
1694476232.4244013,-125.9765625,-238.28125,-616.69921875,-247.55859375,0.0
1694476232.4283001,-786.62109375,-808.10546875,-178.22265625,-806.15234375,0.0
1694476232.432297,221.19140625,240.234375,-380.859375,240.234375,0.0
1694476232.4361956,-1000.0,-1000.0,-873.53515625,-1000.0,0.0
1694476232.4400945,-270.5078125,-407.71484375,-747.0703125,-390.13671875,0.0
1694476232.443993,-807.12890625,-867.1875,-183.10546875,-858.88671875,0.0
1694476232.447892,419.921875,532.2265625,-187.01171875,560.546875,0.0
1694476232.4517906,-1000.0,-1000.0,-791.9921875,-1000.0,0.0
1694476232.4556894,-644.04296875,-908.69140625,-833.0078125,-899.90234375,0.0
1694476232.459588,958.49609375,615.234375,-347.16796875,626.953125,0.0
1694476232.463487,900.87890625,-943.359375,-38.57421875,-891.6015625,0.0
1694476232.4673855,-617.1875,-388.18359375,-575.68359375,-310.05859375,0.0
1694476232.4712844,-1000.0,-1000.0,-916.015625,-1000.0,0.0
1694476232.475183,229.98046875,-10.7421875,-506.8359375,0.48828125,0.0
1694476232.4791722,-783.69140625,-786.62109375,-115.234375,-774.4140625,0.0
1694476232.483071,6.34765625,155.76171875,-470.703125,201.171875,0.0
1694476232.4869697,-1000.0,-1000.0,-922.36328125,-1000.0,0.0
1694476232.4908686,-185.546875,-201.66015625,-617.67578125,-207.51953125,0.0
1694476232.4947672,-954.58984375,-953.125,-162.59765625,-949.21875,0.0
1694476232.498666,-41.50390625,-8.7890625,-396.484375,-30.2734375,0.0
1694476232.5025647,-1000.0,-1000.0,-863.76953125,-1000.0,0.0
1694476232.5064635,-301.7578125,-518.5546875,-738.76953125,-486.81640625,0.0
1694476232.5103621,-836.42578125,-945.3125,-141.11328125,-936.03515625,0.0
1694476232.514261,514.16015625,649.90234375,-207.03125,692.3828125,0.0
1694476232.5181596,-1000.0,-915.0390625,-801.26953125,-887.6953125,0.0
1694476232.5220585,-777.34375,-1000.0,-836.9140625,-1000.0,0.0
1694476232.52604,800.78125,419.43359375,-386.71875,444.3359375,0.0
1694476232.529939,-971.19140625,-864.74609375,-153.3203125,-825.1953125,0.0
1694476232.5338376,-433.10546875,-240.72265625,-627.9296875,-163.0859375,0.0
1694476232.5377364,-1000.0,-1000.0,-881.34765625,-1000.0,0.0
1694476232.541635,100.09765625,-125.48828125,-519.53125,-112.3046875,0.0
1694476232.545534,-772.94921875,-798.33984375,-71.77734375,-786.1328125,0.0
1694476232.5494328,103.02734375,207.51953125,-411.62109375,220.21484375,0.0
1694476232.5533314,-1000.0,-1000.0,-869.140625,-1000.0,0.0
1694476232.5572302,-250.48828125,-284.66796875,-651.85546875,-268.06640625,0.0
1694476232.5611289,-806.15234375,-812.98828125,-193.84765625,-803.7109375,0.0
1694476232.5650277,240.234375,326.171875,-299.31640625,352.05078125,0.0
1694476232.5689263,-1000.0,-1000.0,-832.51953125,-1000.0,0.0
1694476232.5729003,-412.59765625,-630.859375,-791.015625,-610.3515625,0.0
1694476232.5767992,-876.953125,967.7734375,-283.69140625,982.91015625,0.0
1694476232.5806978,620.60546875,782.71484375,-212.40234375,853.02734375,0.0
1694476232.5845966,-1000.0,-786.1328125,-755.859375,-701.171875,0.0
1694476232.5884953,-868.1640625,-1000.0,-850.5859375,-1000.0,0.0
1694476232.592394,680.6640625,317.3828125,-366.2109375,320.80078125,0.0
1694476232.5962927,-864.2578125,-816.89453125,-5.859375,-798.828125,0.0
1694476232.6001916,-244.140625,-72.75390625,-479.00390625,-26.85546875,0.0
1694476232.6040905,-1000.0,-1000.0,-911.62109375,-1000.0,0.0
1694476232.607989,1.953125,-188.4765625,-599.12109375,-228.515625,0.0
1694476232.611888,-770.99609375,-803.22265625,-136.23046875,-807.6171875,0.0
1694476232.6157866,207.51953125,233.88671875,-401.3671875,236.328125,0.0
1694476232.6197631,-1000.0,-1000.0,-901.3671875,-1000.0,0.0
1694476232.6236618,-268.5546875,-349.12109375,-719.23828125,-317.3828125,0.0
1694476232.6275606,-800.78125,-837.890625,-187.98828125,-827.1484375,0.0
1694476232.6314595,323.2421875,438.96484375,-263.18359375,488.76953125,0.0
1694476232.635358,-1000.0,-1000.0,-819.82421875,-1000.0,0.0
1694476232.639257,-501.953125,-749.51171875,-822.265625,-739.74609375,0.0
1694476232.6431556,-938.4765625,831.54296875,-197.75390625,853.02734375,0.0
1694476232.6470544,764.6484375,928.22265625,-52.734375,978.02734375,0.0
1694476232.6509533,-802.734375,-571.77734375,-734.375,-505.37109375,0.0
1694476232.654852,-1000.0,-1000.0,-871.58203125,-1000.0,0.0
1694476232.6587508,424.31640625,106.93359375,-455.078125,123.046875,0.0
1694476232.6626494,-814.453125,-789.0625,-144.04296875,-774.4140625,0.0
1694476232.66662,-126.953125,52.734375,-547.36328125,84.47265625,0.0
1694476232.6705186,-1000.0,-1000.0,-884.765625,-1000.0,0.0
1694476232.6744175,-125.9765625,-238.28125,-598.6328125,-248.53515625,0.0
1694476232.6783164,-786.62109375,-807.12890625,-168.9453125,-806.15234375,0.0
1694476232.682215,221.19140625,239.74609375,-389.16015625,240.72265625,0.0
1694476232.6861138,-1000.0,-1000.0,-832.51953125,-1000.0,0.0
1694476232.6900125,-270.99609375,-418.45703125,-688.4765625,-404.296875,0.0
1694476232.6939113,-807.6171875,-873.53515625,-223.6328125,-865.72265625,0.0
1694476232.6978102,427.24609375,541.9921875,-256.34765625,570.80078125,0.0
1694476232.7017088,-1000.0,-1000.0,-806.640625,-1000.0,0.0
1694476232.7056077,-642.578125,-907.2265625,-843.26171875,-898.92578125,0.0
1694476232.7095065,961.42578125,619.140625,-323.73046875,627.44140625,0.0
1694476232.713509,898.92578125,-942.3828125,-77.63671875,-886.23046875,0.0
1694476232.7174077,-613.76953125,-382.8125,-641.6015625,-298.828125,0.0
1694476232.7213066,-1000.0,-1000.0,-895.01953125,-1000.0,0.0
1694476232.7252054,209.47265625,-24.90234375,-482.91015625,-5.859375,0.0
1694476232.729104,-779.296875,-787.59765625,-82.03125,-773.4375,0.0
1694476232.733003,22.94921875,157.2265625,-451.66015625,208.984375,0.0
1694476232.7369018,-1000.0,-1000.0,-886.71875,-1000.0,0.0
1694476232.7408004,-242.67578125,-256.34765625,-666.9921875,-264.16015625,0.0
1694476232.7446992,-805.17578125,-805.6640625,-143.5546875,-801.7578125,0.0
1694476232.7485979,235.3515625,270.99609375,-276.3671875,256.8359375,0.0
1694476232.7524967,-1000.0,-1000.0,-860.83984375,-1000.0,0.0
1694476232.7563956,-296.875,-519.53125,-775.390625,-511.71875,0.0
1694476232.760392,-823.73046875,-937.01171875,-213.37890625,-937.98828125,0.0
1694476232.7642906,527.83203125,669.43359375,-182.6171875,709.47265625,0.0
1694476232.7681894,-1000.0,-894.04296875,-778.80859375,-871.09375,0.0
1694476232.7720883,-789.55078125,-1000.0,-860.83984375,-1000.0,0.0
1694476232.775987,792.96875,410.15625,-359.375,430.17578125,0.0
1694476232.7798858,-969.7265625,-848.14453125,-32.2265625,-819.82421875,0.0
1694476232.7837846,-433.59375,-203.61328125,-562.98828125,-148.92578125,0.0
1694476232.7876832,-1000.0,-1000.0,-917.96875,-1000.0,0.0
1694476232.791582,99.12109375,-122.55859375,-499.51171875,-111.81640625,0.0
1694476232.795481,-771.97265625,-795.41015625,29.78515625,-784.66796875,0.0
1694476232.7993796,116.2109375,208.49609375,-406.73828125,220.21484375,0.0
1694476232.8032784,-1000.0,-1000.0,-911.1328125,-1000.0,0.0
1694476232.807267,-252.9296875,-289.55078125,-658.203125,-269.04296875,0.0
1694476232.8111658,-805.17578125,-813.96484375,-193.359375,-804.6875,0.0
1694476232.8150647,240.234375,347.16796875,-334.9609375,379.8828125,0.0
1694476232.8189633,-1000.0,-1000.0,-848.6328125,-1000.0,0.0
1694476232.8228621,-416.015625,-639.6484375,-776.3671875,-626.953125,0.0
1694476232.826761,-877.9296875,962.890625,-246.09375,980.95703125,0.0
1694476232.8306599,625.0,787.59765625,-148.92578125,842.28515625,0.0
1694476232.8345585,-979.98046875,-757.32421875,-731.93359375,-689.453125,0.0
1694476232.8384573,-918.9453125,-1000.0,-837.890625,-1000.0,0.0
1694476232.8423562,603.02734375,242.1875,-396.484375,232.421875,0.0
1694476232.8462548,-855.95703125,-806.15234375,-166.50390625,-790.52734375,0.0
1694476232.8501537,-241.69921875,-71.2890625,-597.16796875,-36.62109375,0.0
1694476232.8541443,-1000.0,-1000.0,-892.08984375,-1000.0,0.0
1694476232.858043,-14.6484375,-202.63671875,-592.7734375,-235.3515625,0.0
1694476232.8619418,-772.94921875,-806.15234375,-157.71484375,-810.546875,0.0
1694476232.8658407,208.984375,235.83984375,-393.5546875,238.76953125,0.0
1694476232.8697393,-1000.0,-1000.0,-856.93359375,-1000.0,0.0
1694476232.8736382,-268.5546875,-355.46875,-693.359375,-323.73046875,0.0
1694476232.877537,-802.734375,-839.84375,-191.40625,-829.1015625,0.0
1694476232.8814359,322.75390625,435.05859375,-239.74609375,482.421875,0.0
1694476232.8853345,-1000.0,-1000.0,-777.34375,-1000.0,0.0
1694476232.8892334,-554.19921875,-789.55078125,-822.75390625,-785.15625,0.0
1694476232.8931322,-966.30859375,785.64453125,-311.03515625,800.78125,0.0
1694476232.8970308,774.4140625,936.5234375,-150.87890625,989.74609375,0.0
1694476232.9010155,-806.640625,-572.75390625,-698.73046875,-501.46484375,0.0
1694476232.9049144,-1000.0,-1000.0,-889.6484375,-1000.0,0.0
1694476232.908813,420.8984375,103.02734375,-467.28515625,112.3046875,0.0
1694476232.9127119,-812.98828125,-789.0625,-28.80859375,-775.390625,0.0
1694476232.9166107,-114.2578125,58.10546875,-438.4765625,85.44921875,0.0
1694476232.9205096,-1000.0,-1000.0,-871.58203125,-1000.0,0.0
1694476232.9244082,-147.94921875,-244.62890625,-622.55859375,-248.046875,0.0
1694476232.928307,-791.50390625,-809.08203125,-37.109375,-807.12890625,0.0
1694476232.932206,223.6328125,241.69921875,-248.046875,241.69921875,0.0
1694476232.9361048,-1000.0,-1000.0,-902.83203125,-1000.0,0.0
1694476232.9400034,-270.01953125,-437.5,-731.4453125,-425.78125,0.0
1694476232.9439023,-807.12890625,-880.859375,-194.82421875,-875.0,0.0
1694476232.9478796,419.43359375,538.57421875,-257.32421875,574.21875,0.0
1694476232.9517782,-1000.0,-1000.0,-838.37890625,-1000.0,0.0
1694476232.955677,-639.6484375,-911.62109375,-812.98828125,-892.08984375,0.0
1694476232.959576,961.9140625,606.4453125,-318.359375,632.32421875,0.0
1694476232.9634748,898.92578125,-937.5,-170.41015625,-882.32421875,0.0
1694476232.9673736,-613.76953125,-372.0703125,-666.015625,-286.62109375,0.0
1694476232.9712722,-1000.0,-1000.0,-859.86328125,-1000.0,0.0
1694476232.975171,209.9609375,-40.52734375,-455.078125,-12.20703125,0.0
1694476232.97907,-780.2734375,-791.015625,-163.0859375,-774.90234375,0.0
1694476232.9829688,18.06640625,157.2265625,-529.296875,199.70703125,0.0
1694476232.9868674,-1000.0,-1000.0,-893.06640625,-1000.0,0.0
1694476232.9907663,-241.69921875,-255.859375,-649.90234375,-263.18359375,0.0
1694476232.9947364,-806.640625,-806.15234375,-208.984375,-802.734375,0.0
1694476232.9986353,236.81640625,272.94921875,-363.28125,269.53125,0.0
1694476233.0025342,-1000.0,-1000.0,-859.375,-1000.0,0.0
1694476233.006433,-314.453125,-528.80859375,-766.6015625,-518.5546875,0.0
1694476233.0103316,-830.078125,-939.453125,-240.234375,-937.5,0.0
1694476233.0142305,529.296875,660.15625,-203.61328125,701.171875,0.0
1694476233.0181293,-1000.0,-895.5078125,-747.55859375,-874.0234375,0.0
1694476233.0220282,-805.17578125,-1000.0,-842.7734375,-1000.0,0.0
1694476233.025927,774.90234375,367.67578125,-422.8515625,404.78515625,0.0
1694476233.0298257,-966.30859375,-845.703125,-164.55078125,-817.3828125,0.0
1694476233.0337245,-434.08203125,-202.1484375,-613.76953125,-144.04296875,0.0
1694476233.0376234,-1000.0,-1000.0,-895.01953125,-1000.0,0.0
1694476233.041595,98.6328125,-130.37109375,-562.98828125,-130.859375,0.0
1694476233.0454938,-771.97265625,-797.8515625,-125.9765625,-788.57421875,0.0
1694476233.0493927,121.09375,209.9609375,-423.33984375,222.65625,0.0
1694476233.0532913,-1000.0,-1000.0,-897.4609375,-1000.0,0.0
1694476233.0571902,-253.41796875,-293.45703125,-699.21875,-268.06640625,0.0
1694476233.061089,-806.15234375,-815.91796875,-112.79296875,-804.6875,0.0
1694476233.064988,240.72265625,342.7734375,-173.33984375,370.60546875,0.0
1694476233.0688868,-1000.0,-1000.0,-854.4921875,-1000.0,0.0
1694476233.0727854,-443.359375,-650.87890625,-816.40625,-631.8359375,0.0
1694476233.0766842,-889.6484375,949.70703125,-233.88671875,975.09765625,0.0
1694476233.080583,628.41796875,799.31640625,-179.19921875,847.16796875,0.0
1694476233.084482,-978.515625,-739.2578125,-781.25,-681.15234375,0.0
1694476233.088486,-931.15234375,-1000.0,-878.90625,-1000.0,0.0
1694476233.0923848,585.44921875,209.9609375,-389.6484375,214.35546875,0.0
1694476233.0962837,-853.02734375,-804.6875,-96.19140625,-788.57421875,0.0
1694476233.1001823,-238.76953125,-63.4765625,-572.75390625,-31.25,0.0
1694476233.1040812,-1000.0,-1000.0,-896.97265625,-1000.0,0.0
1694476233.10798,-19.04296875,-205.078125,-522.94921875,-235.83984375,0.0
1694476233.1118789,-773.4375,-806.640625,-54.19921875,-810.05859375,0.0
1694476233.1157777,209.47265625,236.328125,-394.53125,238.76953125,0.0
1694476233.1196766,-1000.0,-1000.0,-893.06640625,-1000.0,0.0
1694476233.1235752,-268.06640625,-358.88671875,-706.0546875,-328.125,0.0
1694476233.127474,-801.7578125,-841.796875,-207.51953125,-830.078125,0.0
1694476233.131373,323.2421875,437.5,-291.50390625,474.12109375,0.0
1694476233.1353695,-1000.0,-1000.0,-835.9375,-1000.0,0.0
1694476233.1392684,-536.62109375,-766.6015625,-804.19921875,-761.71875,0.0
1694476233.1431673,-956.54296875,805.6640625,-314.94140625,820.80078125,0.0
1694476233.147066,770.01953125,947.75390625,-196.2890625,991.2109375,0.0
1694476233.150965,-802.24609375,-540.52734375,-713.37890625,-486.328125,0.0
1694476233.1548638,-1000.0,-1000.0,-861.81640625,-1000.0,0.0
1694476233.1587627,400.390625,64.94140625,-456.54296875,86.9140625,0.0
1694476233.1626613,-806.15234375,-789.55078125,-144.53125,-776.3671875,0.0
1694476233.1665602,-90.33203125,71.2890625,-517.578125,98.6328125,0.0
1694476233.170459,-1000.0,-1000.0,-851.07421875,-1000.0,0.0
1694476233.174358,-138.18359375,-242.67578125,-622.0703125,-249.51171875,0.0
1694476233.1782568,-786.1328125,-807.6171875,-151.3671875,-806.640625,0.0
1694476233.1822567,221.6796875,241.2109375,-354.4921875,241.2109375,0.0
1694476233.1861556,-1000.0,-1000.0,-886.23046875,-1000.0,0.0
1694476233.1900544,-271.484375,-435.546875,-745.1171875,-425.78125,0.0
1694476233.1939533,-808.10546875,-882.8125,-175.29296875,-876.46484375,0.0
1694476233.1978521,438.4765625,559.08203125,-205.078125,586.42578125,0.0
1694476233.2017508,-1000.0,-1000.0,-803.7109375,-1000.0,0.0
1694476233.2056496,-661.62109375,-930.17578125,-833.984375,-912.109375,0.0
1694476233.2095485,951.66015625,586.9140625,-374.51171875,611.328125,0.0
1694476233.2134473,902.34375,-932.12890625,-39.55078125,-879.8828125,0.0
1694476233.2173462,-615.234375,-368.65234375,-551.7578125,-288.57421875,0.0
1694476233.221245,-1000.0,-1000.0,-928.7109375,-1000.0,0.0
1694476233.225144,209.47265625,-31.25,-479.4921875,-12.20703125,0.0
1694476233.2291267,-779.296875,-788.57421875,-11.71875,-774.90234375,0.0
1694476233.2330256,24.90234375,157.71484375,-439.453125,199.21875,0.0
1694476233.2369244,-1000.0,-1000.0,-916.9921875,-1000.0,0.0
1694476233.2408233,-242.67578125,-256.34765625,-632.8125,-262.6953125,0.0
1694476233.2447221,-808.59375,-806.15234375,-113.76953125,-802.734375,0.0
1694476233.248621,238.76953125,271.97265625,-295.8984375,260.7421875,0.0
1694476233.2525198,-1000.0,-1000.0,-860.83984375,-1000.0,0.0
1694476233.2564187,-353.02734375,-539.55078125,-747.0703125,-520.5078125,0.0
1694476233.2603173,-843.26171875,-947.265625,-102.05078125,-938.96484375,0.0
1694476233.2642162,535.64453125,670.41015625,-148.92578125,699.70703125,0.0
1694476233.268115,-1000.0,-896.484375,-804.19921875,-883.30078125,0.0
1694476233.272014,-804.19921875,-1000.0,-850.5859375,-1000.0,0.0
1694476233.2759998,775.87890625,402.34375,-389.6484375,428.22265625,0.0
1694476233.2798986,-970.21484375,-848.6328125,-155.76171875,-822.265625,0.0
1694476233.2837975,-428.22265625,-197.265625,-630.859375,-145.5078125,0.0
1694476233.2876964,-1000.0,-1000.0,-888.18359375,-1000.0,0.0
1694476233.2915952,46.875,-153.80859375,-535.64453125,-154.78515625,0.0
1694476233.295494,-775.87890625,-801.7578125,-70.80078125,-794.921875,0.0
1694476233.299393,158.203125,215.8203125,-403.3203125,226.07421875,0.0
1694476233.3032918,-1000.0,-1000.0,-875.9765625,-1000.0,0.0
1694476233.3071907,-257.32421875,-288.0859375,-660.15625,-268.06640625,0.0
1694476233.3110895,-803.7109375,-813.96484375,-190.91796875,-805.17578125,0.0
1694476233.3149884,240.72265625,344.23828125,-304.19921875,381.8359375,0.0
1694476233.3188872,-1000.0,-1000.0,-846.6796875,-1000.0,0.0
1694476233.3228652,-451.171875,-662.109375,-797.36328125,-641.11328125,0.0
1694476233.326764,-896.97265625,937.01171875,-285.64453125,960.9375,0.0
1694476233.330663,644.53125,815.91796875,-203.125,883.7890625,0.0
1694476233.3345618,-1000.0,-776.3671875,-757.8125,-720.21484375,0.0
1694476233.3384607,-824.21875,-1000.0,-848.6328125,-1000.0,0.0
1694476233.3423595,763.18359375,387.6953125,-371.09375,491.2109375,0.0
1694476233.3462584,-864.74609375,-820.3125,-26.85546875,-806.15234375,0.0
1694476233.3501573,-216.30859375,-55.6640625,-475.09765625,-19.53125,0.0
1694476233.3540561,-1000.0,-1000.0,-918.9453125,-1000.0,0.0
1694476233.357955,-17.08984375,-196.2890625,-599.12109375,-237.79296875,0.0
1694476233.3618538,-771.484375,-804.19921875,-91.30859375,-809.5703125,0.0
1694476233.3657527,213.37890625,238.76953125,-367.1875,243.1640625,0.0
1694476233.3697236,-1000.0,-1000.0,-913.57421875,-1000.0,0.0
1694476233.3736224,-232.91015625,-325.68359375,-714.84375,-298.828125,0.0
1694476233.3775213,-906.73828125,-948.73046875,-197.75390625,-938.96484375,0.0
1694476233.3814201,159.66796875,274.90234375,-291.50390625,317.3828125,0.0
1694476233.385319,-1000.0,-1000.0,-816.40625,-1000.0,0.0
1694476233.3892179,-537.109375,-770.99609375,-830.078125,-761.71875,0.0
1694476233.3931167,-960.44921875,802.24609375,-196.77734375,818.84765625,0.0
1694476233.3970156,769.53125,938.4765625,-39.0625,992.1875,0.0
1694476233.4009144,-802.24609375,-555.6640625,-719.7265625,-487.79296875,0.0
1694476233.4048133,-1000.0,-1000.0,-884.765625,-1000.0,0.0
1694476233.4087121,400.87890625,75.68359375,-463.37890625,107.91015625,0.0
1694476233.412611,-807.12890625,-789.55078125,-94.23828125,-773.92578125,0.0
1694476233.4165754,-96.6796875,69.3359375,-527.83203125,96.6796875,0.0
1694476233.4204743,-1000.0,-1000.0,-903.80859375,-1000.0,0.0
1694476233.4243731,-129.8828125,-243.1640625,-602.5390625,-250.0,0.0
1694476233.428272,-784.66796875,-808.10546875,-164.0625,-806.640625,0.0
1694476233.4321709,220.703125,241.2109375,-387.6953125,241.69921875,0.0
1694476233.4360697,-1000.0,-1000.0,-837.40234375,-1000.0,0.0
1694476233.4399686,-270.99609375,-439.453125,-690.91796875,-431.15234375,0.0
1694476233.4438674,-808.10546875,-882.32421875,-232.421875,-877.9296875,0.0
1694476233.4477663,426.26953125,544.43359375,-255.859375,578.125,0.0
1694476233.4516652,-1000.0,-1000.0,-813.96484375,-1000.0,0.0
1694476233.455564,-655.76171875,-921.38671875,-841.30859375,-907.71484375,0.0
1694476233.459463,953.125,590.8203125,-333.49609375,612.3046875,0.0
1694476233.4634593,901.85546875,-927.24609375,-149.90234375,-877.9296875,0.0
1694476233.467358,-614.2578125,-358.3984375,-666.015625,-283.69140625,0.0
1694476233.471257,-1000.0,-1000.0,-889.6484375,-1000.0,0.0
1694476233.4751558,211.9140625,-37.59765625,-498.046875,-13.671875,0.0
1694476233.4790547,-782.2265625,-790.52734375,-99.609375,-773.92578125,0.0
1694476233.4829535,2.9296875,151.3671875,-451.171875,209.47265625,0.0
1694476233.4868524,-1000.0,-1000.0,-889.6484375,-1000.0,0.0
1694476233.4907513,-239.74609375,-255.37109375,-661.62109375,-264.6484375,0.0
1694476233.4946501,-809.08203125,-806.640625,-149.4140625,-802.734375,0.0
1694476233.498549,238.28125,273.92578125,-293.45703125,262.6953125,0.0
1694476233.5024478,-1000.0,-1000.0,-867.67578125,-1000.0,0.0
1694476233.5063467,-337.40234375,-539.55078125,-784.1796875,-531.25,0.0
1694476233.5103455,-837.890625,-945.80078125,-234.86328125,-944.3359375,0.0
1694476233.5142443,534.1796875,666.9921875,-198.73046875,702.63671875,0.0
1694476233.5181432,-1000.0,-901.85546875,-771.97265625,-882.32421875,0.0
1694476233.5220423,-789.0625,-1000.0,-867.1875,-1000.0,0.0
1694476233.5259411,791.9921875,405.76171875,-360.3515625,422.8515625,0.0
1694476233.52984,-969.7265625,-849.609375,-44.43359375,-820.80078125,0.0
1694476233.5337389,-433.10546875,-204.1015625,-582.51953125,-145.01953125,0.0
1694476233.5376377,-1000.0,-1000.0,-934.5703125,-1000.0,0.0
1694476233.5415366,92.7734375,-141.11328125,-511.71875,-142.578125,0.0
1694476233.5454354,-770.5078125,-799.31640625,34.1796875,-791.9921875,0.0
1694476233.5493343,144.04296875,213.37890625,-396.484375,224.12109375,0.0
1694476233.5532331,-1000.0,-1000.0,-916.9921875,-1000.0,0.0
1694476233.5572257,-256.34765625,-287.109375,-668.45703125,-268.06640625,0.0
1694476233.5611246,-804.19921875,-813.96484375,-189.453125,-805.17578125,0.0
1694476233.5650237,240.234375,346.6796875,-325.68359375,375.0,0.0
1694476233.5689225,-1000.0,-1000.0,-843.75,-1000.0,0.0
1694476233.5728214,-438.96484375,-630.859375,-754.39453125,-632.8125,0.0
1694476233.5767202,-887.6953125,979.00390625,-216.30859375,976.07421875,0.0
1694476233.580619,627.9296875,799.31640625,-163.57421875,845.21484375,0.0
1694476233.584518,-978.515625,-737.3046875,-765.625,-683.59375,0.0
1694476233.5884168,-930.17578125,-1000.0,-832.51953125,-1000.0,0.0
1694476233.5923157,583.49609375,221.19140625,-395.01953125,214.35546875,0.0
1694476233.5962145,-849.12109375,-803.7109375,-159.1796875,-788.0859375,0.0
1694476233.6001134,-225.09765625,-57.6171875,-570.80078125,-29.78515625,0.0
1694476233.6040976,-1000.0,-1000.0,-888.18359375,-1000.0,0.0
1694476233.6079965,-18.06640625,-204.1015625,-600.09765625,-235.83984375,0.0
1694476233.6118953,-772.4609375,-805.6640625,-167.48046875,-810.05859375,0.0
1694476233.6157942,209.47265625,235.83984375,-406.25,238.28125,0.0
1694476233.619693,-1000.0,-1000.0,-859.375,-1000.0,0.0
1694476233.623592,-263.18359375,-351.07421875,-692.3828125,-321.2890625,0.0
1694476233.627491,-804.6875,-836.42578125,-106.4453125,-824.70703125,0.0
1694476233.6313899,241.69921875,331.0546875,-158.69140625,417.96875,0.0
1694476233.6352887,-1000.0,-1000.0,-809.5703125,-1000.0,0.0
1694476233.6391876,-551.26953125,-798.33984375,-838.8671875,-789.0625,0.0
1694476233.6430864,-978.02734375,742.67578125,-336.9140625,782.71484375,0.0
1694476233.6469853,777.34375,947.75390625,-151.3671875,983.88671875,0.0
1694476233.6509628,-804.19921875,-570.3125,-684.5703125,-515.625,0.0
1694476233.6548617,-1000.0,-1000.0,-905.2734375,-1000.0,0.0
1694476233.6587605,402.34375,113.28125,-469.7265625,102.5390625,0.0
1694476233.6626594,-806.15234375,-786.1328125,-22.94921875,-776.3671875,0.0
1694476233.6665583,-119.140625,54.19921875,-474.609375,85.44921875,0.0
1694476233.6704571,-1000.0,-1000.0,-894.04296875,-1000.0,0.0
1694476233.674356,-68.359375,-228.02734375,-609.375,-248.046875,0.0
1694476233.678255,-773.92578125,-804.19921875,-16.11328125,-806.640625,0.0
1694476233.682154,213.8671875,244.140625,-214.84375,241.2109375,0.0
1694476233.6860528,-1000.0,-1000.0,-886.23046875,-1000.0,0.0
1694476233.6899517,-272.4609375,-429.6875,-724.12109375,-418.45703125,0.0
1694476233.6938505,-807.6171875,-879.39453125,-170.41015625,-873.53515625,0.0
1694476233.6978304,437.98828125,558.59375,-213.8671875,584.47265625,0.0
1694476233.7017293,-1000.0,-1000.0,-830.078125,-1000.0,0.0
1694476233.7056282,-640.13671875,-903.80859375,-823.2421875,-879.39453125,0.0
1694476233.709527,965.33203125,624.51171875,-312.5,652.34375,0.0
1694476233.713426,897.4609375,-934.5703125,-158.203125,-884.765625,0.0
1694476233.717325,-613.28125,-367.1875,-672.8515625,-286.1328125,0.0
1694476233.7212238,-1000.0,-1000.0,-863.76953125,-1000.0,0.0
1694476233.7251227,210.9375,-30.2734375,-448.73046875,-5.859375,0.0
1694476233.7290215,-781.25,-789.0625,-129.39453125,-774.4140625,0.0
1694476233.7329204,9.765625,153.3203125,-503.41796875,195.3125,0.0
1694476233.7368195,-1000.0,-1000.0,-901.85546875,-1000.0,0.0
1694476233.7407184,-240.72265625,-255.859375,-639.16015625,-262.20703125,0.0
1694476233.7446916,-808.59375,-806.640625,-125.48828125,-803.22265625,0.0
1694476233.7485905,242.67578125,277.34375,-317.3828125,264.16015625,0.0
1694476233.7524893,-1000.0,-1000.0,-871.09375,-1000.0,0.0
1694476233.7563882,-305.6640625,-507.8125,-757.32421875,-494.140625,0.0
1694476233.760287,-944.3359375,976.5625,-241.2109375,983.88671875,0.0
1694476233.7641861,352.5390625,527.34375,-236.328125,571.2890625,0.0
1694476233.768085,-1000.0,-879.8828125,-752.9296875,-860.3515625,0.0
1694476233.7719839,-802.24609375,-1000.0,-834.47265625,-1000.0,0.0
1694476233.7758827,768.5546875,377.44140625,-393.5546875,407.2265625,0.0
1694476233.7797816,-963.8671875,-845.703125,-105.95703125,-817.87109375,0.0
1694476233.7836807,-429.6875,-198.73046875,-585.9375,-143.06640625,0.0
1694476233.7875795,-1000.0,-1000.0,-900.390625,-1000.0,0.0
1694476233.7915452,96.6796875,-133.7890625,-572.265625,-132.8125,0.0
1694476233.7954443,-770.5078125,-797.36328125,-145.01953125,-789.55078125,0.0
1694476233.799343,142.08984375,212.40234375,-432.6171875,222.65625,0.0
1694476233.803242,-1000.0,-1000.0,-890.13671875,-1000.0,0.0
1694476233.8071408,-256.34765625,-288.57421875,-680.6640625,-268.06640625,0.0
1694476233.8110397,-802.734375,-813.96484375,-94.7265625,-804.19921875,0.0
1694476233.8149388,238.76953125,341.796875,-167.48046875,366.69921875,0.0
1694476233.8188376,-1000.0,-1000.0,-857.421875,-1000.0,0.0
1694476233.8227365,-405.2734375,-624.51171875,-802.734375,-614.74609375,0.0
1694476233.8266354,-873.046875,970.21484375,-248.53515625,985.83984375,0.0
1694476233.8305342,622.0703125,797.8515625,-197.265625,841.30859375,0.0
1694476233.8344333,-975.5859375,-737.79296875,-760.25390625,-687.5,0.0
1694476233.838432,-931.640625,-1000.0,-871.58203125,-1000.0,0.0
1694476233.8423312,583.984375,231.4453125,-402.34375,230.95703125,0.0
1694476233.84623,-850.09765625,-803.22265625,-87.40234375,-790.0390625,0.0
1694476233.850129,-230.46875,-60.05859375,-557.6171875,-34.1796875,0.0
1694476233.8540277,-1000.0,-1000.0,-898.4375,-1000.0,0.0
1694476233.8579268,-15.625,-197.75390625,-521.97265625,-235.3515625,0.0
1694476233.8618257,-772.4609375,-804.19921875,-4.39453125,-811.03515625,0.0
1694476233.8657246,208.984375,234.86328125,-356.4453125,238.76953125,0.0
1694476233.8696234,-1000.0,-1000.0,-898.92578125,-1000.0,0.0
1694476233.8735223,-268.5546875,-354.98046875,-701.171875,-332.03125,0.0
1694476233.8774214,-801.7578125,-839.84375,-178.7109375,-831.54296875,0.0
1694476233.8813202,328.125,443.84765625,-257.32421875,479.00390625,0.0
1694476233.885312,-1000.0,-1000.0,-832.51953125,-1000.0,0.0
1694476233.8892112,-543.9453125,-772.94921875,-816.89453125,-763.18359375,0.0
1694476233.89311,-924.31640625,840.8203125,-286.1328125,849.609375,0.0
1694476233.897009,636.71875,843.75,-189.94140625,921.875,0.0
1694476233.9009078,-946.2890625,-686.5234375,-750.0,-593.26171875,0.0
1694476233.9048069,-1000.0,-1000.0,-853.515625,-1000.0,0.0
1694476233.9087057,396.97265625,84.9609375,-470.21484375,102.5390625,0.0
1694476233.9126046,-810.546875,-792.48046875,-177.24609375,-778.3203125,0.0
1694476233.9165034,-111.328125,60.546875,-526.85546875,85.9375,0.0
1694476233.9204025,-1000.0,-1000.0,-861.328125,-1000.0,0.0
1694476233.9243014,-127.9296875,-238.28125,-633.30078125,-248.046875,0.0
1694476233.9282002,-785.64453125,-806.640625,-175.78125,-807.6171875,0.0
1694476233.9321938,220.703125,240.234375,-375.48828125,241.2109375,0.0
1694476233.9360926,-1000.0,-1000.0,-877.44140625,-1000.0,0.0
1694476233.9399915,-271.484375,-421.875,-753.41796875,-421.875,0.0
1694476233.9438906,-807.6171875,-877.9296875,-185.05859375,-875.0,0.0
1694476233.9477894,438.4765625,562.98828125,-191.40625,586.42578125,0.0
1694476233.9516883,-1000.0,-1000.0,-792.96875,-1000.0,0.0
1694476233.9555871,-638.18359375,-903.3203125,-833.49609375,-903.3203125,0.0
1694476233.9594862,965.8203125,624.51171875,-354.98046875,624.0234375,0.0
1694476233.963385,899.4140625,-929.19921875,-22.4609375,-883.7890625,0.0
1694476233.967284,-618.65234375,-361.81640625,-550.78125,-292.48046875,0.0
1694476233.971183,-1000.0,-1000.0,-920.41015625,-1000.0,0.0
1694476233.975082,239.74609375,-6.8359375,-478.02734375,-8.7890625,0.0
1694476233.9790692,-782.2265625,-784.1796875,-50.29296875,-774.4140625,0.0
1694476233.982968,16.11328125,152.83203125,-464.35546875,198.2421875,0.0
1694476233.986867,-1000.0,-1000.0,-911.62109375,-1000.0,0.0
1694476233.990766,-241.69921875,-256.34765625,-622.55859375,-262.6953125,0.0
1694476233.994665,-807.6171875,-806.15234375,-85.44921875,-802.734375,0.0
1694476233.9985638,236.81640625,271.97265625,-281.73828125,260.25390625,0.0
1694476234.0024626,-1000.0,-1000.0,-875.48828125,-1000.0,0.0
1694476234.0063617,-321.77734375,-530.2734375,-749.0234375,-514.6484375,0.0
1694476234.0102606,-832.03125,-941.89453125,-108.3984375,-935.05859375,0.0
1694476234.0141594,529.296875,667.48046875,-174.8046875,694.82421875,0.0
1694476234.0180585,-1000.0,-903.80859375,-807.6171875,-887.6953125,0.0
1694476234.0219574,-763.18359375,-1000.0,-842.7734375,-1000.0,0.0
1694476234.0259368,819.82421875,428.7109375,-381.8359375,433.10546875,0.0
1694476234.0298357,-975.09765625,-850.09765625,-151.3671875,-823.2421875,0.0
1694476234.0337348,-432.6171875,-204.1015625,-630.37109375,-160.15625,0.0
1694476234.0376337,-1000.0,-1000.0,-873.53515625,-1000.0,0.0
1694476234.0415325,97.65625,-125.9765625,-543.9453125,-115.234375,0.0
1694476234.0454316,-770.5078125,-795.8984375,-85.9375,-786.1328125,0.0
1694476234.0493305,136.71875,210.44921875,-379.8828125,220.703125,0.0
1694476234.0532293,-1000.0,-1000.0,-867.1875,-1000.0,0.0
1694476234.0571284,-255.859375,-283.69140625,-652.83203125,-268.06640625,0.0
1694476234.0610273,-803.7109375,-812.5,-203.61328125,-804.19921875,0.0
1694476234.0649261,239.74609375,335.9375,-330.078125,363.76953125,0.0
1694476234.0688252,-1000.0,-1000.0,-850.09765625,-1000.0,0.0
1694476234.0727985,-423.33984375,-640.625,-805.6640625,-627.44140625,0.0
1694476234.0766973,-880.37109375,962.890625,-290.0390625,975.5859375,0.0
1694476234.0805964,618.1640625,780.76171875,-198.2421875,849.12109375,0.0
1694476234.0844953,-986.328125,-768.5546875,-753.90625,-685.05859375,0.0
1694476234.0883942,-913.57421875,-1000.0,-868.1640625,-1000.0,0.0
1694476234.0922933,606.93359375,249.0234375,-401.3671875,239.74609375,0.0
1694476234.0961921,-856.4453125,-806.15234375,-18.06640625,-789.55078125,0.0
1694476234.100091,-241.69921875,-69.82421875,-478.02734375,-28.3203125,0.0
1694476234.10399,-1000.0,-1000.0,-913.57421875,-1000.0,0.0
1694476234.107889,-16.11328125,-203.61328125,-595.703125,-236.328125,0.0
1694476234.1117878,-773.4375,-806.15234375,-142.08984375,-809.08203125,0.0
1694476234.115687,208.984375,235.3515625,-412.59765625,237.3046875,0.0
1694476234.1196623,-1000.0,-1000.0,-901.3671875,-1000.0,0.0
1694476234.1235611,-267.08984375,-341.30859375,-716.796875,-307.6171875,0.0
1694476234.12746,-802.24609375,-834.47265625,-110.3515625,-822.265625,0.0
1694476234.131359,308.59375,426.26953125,-187.01171875,461.9140625,0.0
1694476234.135258,-1000.0,-1000.0,-835.44921875,-1000.0,0.0
1694476234.139157,-514.6484375,-760.25390625,-803.7109375,-755.859375,0.0
1694476234.143056,993.65234375,796.875,-217.28515625,829.58984375,0.0
1694476234.1469548,676.7578125,898.92578125,-100.5859375,979.00390625,0.0
1694476234.1508539,-794.43359375,-572.75390625,-720.21484375,-509.765625,0.0
1694476234.1547527,-1000.0,-1000.0,-882.32421875,-1000.0,0.0
1694476234.1586518,401.85546875,97.65625,-468.26171875,117.67578125,0.0
1694476234.1625507,-812.98828125,-791.50390625,-145.01953125,-776.3671875,0.0
1694476234.166519,-129.39453125,39.55078125,-547.8515625,78.125,0.0
1694476234.1704178,-1000.0,-1000.0,-893.5546875,-1000.0,0.0
1694476234.174317,-125.9765625,-237.3046875,-597.16796875,-247.55859375,0.0
1694476234.1782157,-787.109375,-809.08203125,-158.69140625,-808.10546875,0.0
1694476234.1821148,221.19140625,241.2109375,-388.18359375,241.69921875,0.0
1694476234.1860137,-1000.0,-1000.0,-843.26171875,-1000.0,0.0
1694476234.1899126,-270.5078125,-439.94140625,-691.89453125,-431.640625,0.0
1694476234.1938117,-806.640625,-881.8359375,-245.1171875,-876.46484375,0.0
1694476234.1977105,415.52734375,536.1328125,-288.57421875,565.4296875,0.0
1694476234.2016096,-1000.0,-1000.0,-810.546875,-1000.0,0.0
1694476234.2055085,-623.53515625,-896.484375,-799.31640625,-888.671875,0.0
1694476234.2094073,972.16796875,639.16015625,-343.75,647.4609375,0.0
1694476234.213408,893.06640625,-963.8671875,-185.05859375,-910.15625,0.0
1694476234.2173069,-614.74609375,-418.45703125,-674.31640625,-339.35546875,0.0
1694476234.221206,-1000.0,-1000.0,-891.11328125,-1000.0,0.0
1694476234.2251048,213.37890625,-26.3671875,-495.60546875,-3.90625,0.0
1694476234.229004,-784.66796875,-791.50390625,-78.61328125,-776.3671875,0.0
1694476234.2329028,-14.16015625,145.01953125,-455.078125,193.359375,0.0
1694476234.2368016,-1000.0,-1000.0,-892.08984375,-1000.0,0.0
1694476234.2407007,-237.79296875,-254.39453125,-655.2734375,-261.23046875,0.0
1694476234.2445996,-809.08203125,-806.640625,-146.97265625,-803.22265625,0.0
1694476234.2484987,237.3046875,267.08984375,-293.9453125,241.69921875,0.0
1694476234.2523975,-1000.0,-1000.0,-855.95703125,-1000.0,0.0
1694476234.2562966,-313.96484375,-522.94921875,-777.83203125,-508.7890625,0.0
1694476234.2602994,-828.61328125,-935.546875,-206.54296875,-932.12890625,0.0
1694476234.2641983,518.06640625,651.85546875,-154.296875,684.08203125,0.0
1694476234.2680974,-1000.0,-916.9921875,-795.41015625,-902.83203125,0.0
1694476234.2719963,-765.13671875,-1000.0,-882.32421875,-1000.0,0.0
1694476234.2758954,814.94140625,430.17578125,-341.30859375,446.77734375,0.0
1694476234.2797942,-974.12109375,-860.83984375,-17.08984375,-825.1953125,0.0
1694476234.2836933,-432.6171875,-226.5625,-586.9140625,-160.15625,0.0
1694476234.2875922,-1000.0,-1000.0,-932.12890625,-1000.0,0.0
1694476234.291491,101.07421875,-128.90625,-501.46484375,-115.72265625,0.0
1694476234.2953901,-773.4375,-798.33984375,17.578125,-786.62109375,0.0
1694476234.299289,97.16796875,206.54296875,-423.33984375,220.703125,0.0
1694476234.303188,-1000.0,-1000.0,-910.64453125,-1000.0,0.0
1694476234.3071735,-250.0,-279.296875,-661.1328125,-268.06640625,0.0
1694476234.3110726,-807.6171875,-811.5234375,-201.66015625,-804.19921875,0.0
1694476234.3149714,240.72265625,335.44921875,-328.61328125,358.3984375,0.0
1694476234.3188705,-1000.0,-1000.0,-847.16796875,-1000.0,0.0
1694476234.3227694,-433.10546875,-642.08984375,-786.1328125,-624.51171875,0.0
1694476234.3266685,-883.7890625,960.9375,-219.23828125,981.4453125,0.0
1694476234.3305674,617.1875,783.69140625,-154.78515625,834.47265625,0.0
1694476234.3344665,-986.81640625,-762.6953125,-773.92578125,-699.70703125,0.0
1694476234.3383653,-920.41015625,-1000.0,-834.9609375,-1000.0,0.0
1694476234.3422644,597.16796875,239.74609375,-396.484375,230.95703125,0.0
1694476234.3461633,-854.98046875,-807.6171875,-164.0625,-792.48046875,0.0
1694476234.3500624,-241.69921875,-77.63671875,-591.796875,-44.921875,0.0
1694476234.354051,-1000.0,-1000.0,-886.23046875,-1000.0,0.0
1694476234.3579502,-14.6484375,-192.87109375,-577.63671875,-234.375,0.0
1694476234.361849,-772.94921875,-804.19921875,-150.87890625,-810.546875,0.0
1694476234.3657482,208.984375,234.375,-396.97265625,237.79296875,0.0
1694476234.369647,-1000.0,-1000.0,-868.1640625,-1000.0,0.0
1694476234.3735461,-267.578125,-346.19140625,-671.38671875,-313.96484375,0.0
1694476234.377445,-801.26953125,-836.42578125,-114.2578125,-824.70703125,0.0
1694476234.381344,309.5703125,429.19921875,-205.078125,471.6796875,0.0
1694476234.385243,-1000.0,-1000.0,-786.1328125,-1000.0,0.0
1694476234.389142,-506.34765625,-751.953125,-819.82421875,-741.2109375,0.0
1694476234.393041,-937.98828125,835.9375,-303.7109375,857.421875,0.0
1694476234.39694,746.58203125,905.76171875,-141.11328125,953.125,0.0
1694476234.4009306,-819.3359375,-601.5625,-701.171875,-539.55078125,0.0
1694476234.4048297,-1000.0,-1000.0,-887.20703125,-1000.0,0.0
1694476234.4087288,404.296875,92.7734375,-463.37890625,107.91015625,0.0
1694476234.4126277,-813.4765625,-791.9921875,-51.26953125,-778.3203125,0.0
1694476234.4165268,-129.39453125,42.96875,-469.23828125,75.68359375,0.0
1694476234.4204257,-1000.0,-1000.0,-890.13671875,-1000.0,0.0
1694476234.4243248,-125.9765625,-234.86328125,-620.1171875,-247.0703125,0.0
1694476234.4282236,-786.62109375,-808.10546875,-28.3203125,-807.6171875,0.0
1694476234.4321227,221.19140625,240.234375,-245.1171875,241.2109375,0.0
1694476234.4360216,-1000.0,-1000.0,-892.08984375,-1000.0,0.0
1694476234.4399207,-270.5078125,-426.7578125,-716.30859375,-415.52734375,0.0
1694476234.4438195,-806.640625,-875.9765625,-187.01171875,-869.140625,0.0
1694476234.4478033,412.59765625,533.203125,-248.53515625,558.59375,0.0
1694476234.4517024,-1000.0,-1000.0,-829.58984375,-1000.0,0.0
1694476234.4556015,-628.41796875,-896.97265625,-825.68359375,-881.34765625,0.0
1694476234.4595003,967.28515625,635.7421875,-334.47265625,654.296875,0.0
1694476234.4633994,896.484375,-956.0546875,-181.640625,-908.203125,0.0
1694476234.4672983,-612.3046875,-409.66796875,-686.03515625,-334.47265625,0.0
1694476234.4711974,-1000.0,-1000.0,-845.21484375,-1000.0,0.0
1694476234.4750962,213.8671875,-7.8125,-438.96484375,3.90625,0.0
1694476234.4789953,-784.66796875,-787.109375,-137.6953125,-775.87890625,0.0
1694476234.4828942,-14.16015625,144.53125,-521.484375,184.5703125,0.0
1694476234.4867933,-1000.0,-1000.0,-898.92578125,-1000.0,0.0
1694476234.4906924,-237.79296875,-254.8828125,-648.4375,-259.765625,0.0
1694476234.49467,-808.10546875,-806.640625,-116.2109375,-803.7109375,0.0
1694476234.498569,235.83984375,266.6015625,-288.57421875,242.1875,0.0
1694476234.5024679,-1000.0,-1000.0,-869.140625,-1000.0,0.0
1694476234.506367,-296.875,-523.4375,-749.51171875,-509.765625,0.0
1694476234.5102658,-822.265625,-933.59375,-213.8671875,-928.7109375,0.0
1694476234.514165,501.953125,640.625,-212.890625,668.45703125,0.0
1694476234.518064,-1000.0,-935.546875,-767.578125,-928.22265625,0.0
1694476234.521963,-708.984375,-1000.0,-829.1015625,-998.046875,0.0
1694476234.525862,871.58203125,469.7265625,-398.4375,480.46875,0.0
1694476234.5297608,-984.375,-874.51171875,-165.0390625,-834.47265625,0.0
1694476234.53366,-429.6875,-252.44140625,-630.859375,-174.8046875,0.0
1694476234.5375588,-1000.0,-1000.0,-898.4375,-1000.0,0.0
1694476234.54153,101.07421875,-132.32421875,-572.75390625,-133.30078125,0.0
1694476234.5454288,-773.4375,-800.29296875,-135.25390625,-791.9921875,0.0
1694476234.5493279,97.65625,207.03125,-411.62109375,223.6328125,0.0
1694476234.5532267,-1000.0,-1000.0,-890.13671875,-1000.0,0.0
1694476234.5571258,-250.0,-277.83203125,-699.70703125,-266.6015625,0.0
1694476234.561025,-806.15234375,-811.03515625,-93.26171875,-803.22265625,0.0
1694476234.5649238,240.234375,327.1484375,-151.85546875,339.84375,0.0
1694476234.5688229,-1000.0,-1000.0,-848.6328125,-1000.0,0.0
1694476234.5727217,-411.62109375,-629.39453125,-806.640625,-617.67578125,0.0
1694476234.5766208,-874.51171875,972.65625,-213.37890625,989.74609375,0.0
1694476234.58052,610.83984375,771.484375,-173.33984375,810.546875,0.0
1694476234.5844188,-996.09375,-779.296875,-784.66796875,-737.3046875,0.0
1694476234.5884209,-891.11328125,-1000.0,-868.1640625,-1000.0,0.0
1694476234.5923197,634.765625,265.625,-387.6953125,257.8125,0.0
1694476234.5962188,-860.83984375,-815.4296875,-101.5625,-796.38671875,0.0
1694476234.600118,-241.2109375,-103.02734375,-572.265625,-57.6171875,0.0
1694476234.6040168,-1000.0,-1000.0,-890.13671875,-1000.0,0.0
1694476234.6079159,-14.6484375,-190.91796875,-515.13671875,-224.12109375,0.0
1694476234.611815,-773.4375,-804.6875,-33.69140625,-807.12890625,0.0
1694476234.6157138,209.47265625,233.88671875,-387.6953125,234.86328125,0.0
1694476234.619613,-1000.0,-1000.0,-895.99609375,-1000.0,0.0
1694476234.623512,-266.6015625,-327.63671875,-684.5703125,-278.3203125,0.0
1694476234.627411,-802.734375,-828.61328125,-199.21875,-810.546875,0.0
1694476234.63131,293.9453125,414.0625,-302.24609375,435.546875,0.0
1694476234.6353145,-1000.0,-1000.0,-841.30859375,-1000.0,0.0
1694476234.6392136,-539.55078125,-763.671875,-815.4296875,-749.51171875,0.0
1694476234.6431127,-958.0078125,822.265625,-299.8046875,840.33203125,0.0
1694476234.6470115,753.90625,907.2265625,-205.56640625,958.49609375,0.0
1694476234.6509106,-837.890625,-614.2578125,-732.421875,-545.8984375,0.0
1694476234.6548095,-1000.0,-1000.0,-834.47265625,-1000.0,0.0
1694476234.6587086,461.9140625,134.27734375,-453.61328125,137.20703125,0.0
1694476234.6626077,-819.3359375,-789.55078125,-173.33984375,-775.87890625,0.0
1694476234.6665065,-129.8828125,35.64453125,-529.296875,73.2421875,0.0
1694476234.6704056,-1000.0,-1000.0,-868.1640625,-1000.0,0.0
1694476234.6743047,-125.48828125,-237.3046875,-620.1171875,-247.0703125,0.0
1694476234.6782036,-786.62109375,-808.10546875,-137.20703125,-806.15234375,0.0
1694476234.6821911,221.19140625,239.74609375,-376.953125,240.234375,0.0
1694476234.6860902,-1000.0,-1000.0,-893.06640625,-1000.0,0.0
1694476234.689989,-270.01953125,-405.76171875,-733.3984375,-388.18359375,0.0
1694476234.6938882,-805.17578125,-866.2109375,-162.59765625,-855.46875,0.0
1694476234.6977873,403.3203125,521.97265625,-204.58984375,541.015625,0.0
1694476234.7016861,-1000.0,-1000.0,-803.7109375,-1000.0,0.0
1694476234.7055852,-584.9609375,-869.140625,-822.75390625,-870.1171875,0.0
1694476234.7094843,-999.0234375,674.8046875,-343.75,675.78125,0.0
1694476234.7133832,865.234375,-975.09765625,-30.2734375,-929.19921875,0.0
1694476234.7172823,-656.25,-436.03515625,-556.15234375,-374.0234375,0.0
1694476234.7211814,-1000.0,-1000.0,-908.69140625,-1000.0,0.0
1694476234.7250803,275.390625,12.6953125,-452.63671875,21.484375,0.0
1694476234.7290606,-789.0625,-785.64453125,-58.59375,-775.390625,0.0
1694476234.7329597,-15.625,134.27734375,-484.86328125,171.875,0.0
1694476234.7368586,-1000.0,-1000.0,-911.1328125,-1000.0,0.0
1694476234.7407577,-238.28125,-253.90625,-627.9296875,-258.30078125,0.0
1694476234.7446568,-807.6171875,-806.640625,-113.76953125,-803.7109375,0.0
1694476234.748556,235.3515625,263.671875,-294.921875,241.69921875,0.0
1694476234.7524548,-1000.0,-1000.0,-875.48828125,-1000.0,0.0
1694476234.7563539,-287.109375,-509.765625,-739.74609375,-482.91015625,0.0
1694476234.760253,-817.87109375,-925.29296875,-60.05859375,-907.71484375,0.0
1694476234.7641518,486.81640625,630.37109375,-151.3671875,637.20703125,0.0
1694476234.768051,-1000.0,-938.4765625,-825.1953125,-952.1484375,0.0
1694476234.77195,-738.28125,-1000.0,-836.42578125,-997.55859375,0.0
1694476234.775942,835.9375,458.49609375,-380.37109375,472.16796875,0.0
1694476234.7798412,-976.5625,-868.65234375,-152.83203125,-832.03125,0.0
1694476234.7837403,-433.10546875,-247.0703125,-621.58203125,-178.7109375,0.0
1694476234.7876394,-1000.0,-1000.0,-886.71875,-1000.0,0.0
1694476234.7915382,113.76953125,-107.91015625,-525.390625,-104.00390625,0.0
1694476234.7954373,-772.4609375,-794.921875,-72.265625,-785.64453125,0.0
1694476234.7993364,96.19140625,199.70703125,-419.43359375,219.7265625,0.0
1694476234.8032355,-1000.0,-1000.0,-876.953125,-1000.0,0.0
1694476234.8071344,-250.0,-273.4375,-645.5078125,-267.08984375,0.0
1694476234.8110335,-805.6640625,-809.08203125,-186.03515625,-802.734375,0.0
1694476234.8149326,239.2578125,321.77734375,-305.6640625,333.0078125,0.0
1694476234.8188317,-1000.0,-1000.0,-841.796875,-1000.0,0.0
1694476234.8228164,-393.5546875,-618.65234375,-799.31640625,-600.5859375,0.0
1694476234.8267155,-865.72265625,983.3984375,-270.99609375,-999.0234375,0.0
1694476234.8306143,599.12109375,760.25390625,-201.66015625,804.19921875,0.0
1694476234.8345134,-1000.0,-795.41015625,-756.8359375,-750.9765625,0.0
1694476234.8384125,-855.46875,-1000.0,-853.515625,-1000.0,0.0
1694476234.8423116,677.24609375,292.48046875,-388.18359375,297.8515625,0.0
1694476234.8462107,-865.72265625,-818.84765625,-37.109375,-799.31640625,0.0
1694476234.8501096,-242.67578125,-116.69921875,-504.39453125,-63.4765625,0.0
1694476234.8540087,-1000.0,-1000.0,-914.0625,-1000.0,0.0
1694476234.8579078,0.9765625,-181.640625,-594.23828125,-217.7734375,0.0
1694476234.8618069,-770.99609375,-803.22265625,-121.09375,-805.17578125,0.0
1694476234.8657057,207.51953125,232.421875,-394.04296875,233.3984375,0.0
1694476234.8696845,-1000.0,-1000.0,-899.90234375,-1000.0,0.0
1694476234.8735833,-266.11328125,-323.2421875,-697.265625,-270.99609375,0.0
1694476234.8774824,-801.26953125,-827.1484375,-148.4375,-808.10546875,0.0
1694476234.8813815,278.80859375,410.15625,-244.140625,427.734375,0.0
1694476234.8852806,-1000.0,-1000.0,-833.49609375,-1000.0,0.0
1694476234.8891795,-480.46875,-731.93359375,-826.171875,-705.078125,0.0
1694476234.8930786,-919.43359375,862.3046875,-176.7578125,902.83203125,0.0
1694476234.8969777,705.078125,878.41796875,-25.390625,910.15625,0.0
1694476234.9008768,-869.62890625,-641.6015625,-731.93359375,-603.515625,0.0
1694476234.9047759,-1000.0,-1000.0,-887.6953125,-1000.0,0.0
1694476234.9086747,444.82421875,134.27734375,-439.453125,142.578125,0.0
1694476234.9125738,-817.87109375,-792.96875,-86.42578125,-779.78515625,0.0
1694476234.9165456,-129.8828125,19.04296875,-538.0859375,54.19921875,0.0
1694476234.9204447,-1000.0,-1000.0,-895.99609375,-1000.0,0.0
1694476234.9243438,-122.55859375,-230.95703125,-585.44921875,-244.62890625,0.0
1694476234.9282427,-786.1328125,-808.10546875,-156.73828125,-807.12890625,0.0
1694476234.9321418,220.703125,239.74609375,-395.99609375,240.234375,0.0
1694476234.9360409,-1000.0,-1000.0,-851.07421875,-1000.0,0.0
1694476234.93994,-269.53125,-405.2734375,-689.94140625,-379.39453125,0.0
1694476234.943839,-805.17578125,-865.72265625,-211.9140625,-851.5625,0.0
1694476234.9477382,395.5078125,519.04296875,-247.0703125,536.1328125,0.0
1694476234.951637,-1000.0,-1000.0,-806.15234375,-1000.0,0.0
1694476234.9555361,-596.6796875,-869.140625,-824.21875,-848.6328125,0.0
1694476234.9594352,995.60546875,680.6640625,-332.03125,708.984375,0.0
1694476234.9634287,856.93359375,-983.88671875,-160.64453125,-944.82421875,0.0
1694476234.9673278,-658.69140625,-448.73046875,-680.17578125,-394.04296875,0.0
1694476234.971227,-1000.0,-1000.0,-890.625,-1000.0,0.0
1694476234.975126,230.95703125,3.41796875,-479.00390625,20.01953125,0.0
1694476234.9790251,-785.64453125,-789.0625,-88.8671875,-776.85546875,0.0
1694476234.982924,-15.625,126.46484375,-463.37890625,169.921875,0.0
1694476234.986823,-1000.0,-1000.0,-882.8125,-1000.0,0.0
1694476234.9907222,-228.02734375,-252.44140625,-645.01953125,-257.8125,0.0
1694476234.9946213,-804.19921875,-807.12890625,-144.53125,-803.7109375,0.0
1694476234.9985204,233.3984375,256.8359375,-302.24609375,241.69921875,0.0
1694476235.0024195,-1000.0,-1000.0,-868.65234375,-1000.0,0.0
1694476235.0063183,-271.484375,-500.48828125,-791.50390625,-477.5390625,0.0
1694476235.0103238,-811.5234375,-921.38671875,-190.4296875,-903.3203125,0.0
1694476235.0142229,477.5390625,625.0,-146.484375,627.9296875,0.0
1694476235.018122,-1000.0,-947.265625,-799.31640625,-970.21484375,0.0
1694476235.022021,-674.8046875,-993.1640625,-866.69921875,-971.19140625,0.0
1694476235.0259202,909.66796875,487.79296875,-335.9375,518.06640625,0.0
1694476235.0298193,992.67578125,-882.8125,-24.90234375,-843.75,0.0
1694476235.0337183,-464.35546875,-278.3203125,-585.9375,-214.35546875,0.0
1694476235.0376172,-1000.0,-1000.0,-931.640625,-1000.0,0.0
1694476235.0415163,142.08984375,-89.35546875,-484.375,-74.70703125,0.0
1694476235.0454154,-771.484375,-792.48046875,82.03125,-782.71484375,0.0
1694476235.0493145,93.75,195.80078125,-387.6953125,216.30859375,0.0
1694476235.0532136,-1000.0,-1000.0,-927.24609375,-1000.0,0.0
1694476235.0572038,-250.0,-268.5546875,-649.4140625,-269.04296875,0.0
1694476235.0611029,-804.19921875,-807.6171875,-177.24609375,-795.41015625,0.0
1694476235.065002,238.76953125,312.98828125,-334.9609375,305.17578125,0.0
1694476235.068901,-1000.0,-1000.0,-848.14453125,-1000.0,0.0
1694476235.0728002,-370.60546875,-595.703125,-754.8828125,-477.5390625,0.0
1694476235.0766993,-854.4921875,-998.53515625,-222.65625,-980.95703125,0.0
1694476235.080598,583.984375,748.53515625,-173.828125,770.99609375,0.0
1694476235.0844972,-1000.0,-805.17578125,-775.87890625,-784.66796875,0.0
1694476235.0883963,-837.40234375,-1000.0,-819.82421875,-1000.0,0.0
1694476235.0922954,709.47265625,309.08203125,-367.1875,319.82421875,0.0
1694476235.0961945,-890.625,-826.66015625,-140.13671875,-807.12890625,0.0
1694476235.1000936,-286.1328125,-143.5546875,-585.9375,-99.609375,0.0
1694476235.1040761,-1000.0,-1000.0,-894.04296875,-1000.0,0.0
1694476235.1079752,17.08984375,-173.828125,-574.70703125,-205.078125,0.0
1694476235.1118743,-770.5078125,-802.734375,-149.90234375,-805.17578125,0.0
1694476235.1157734,206.0546875,231.4453125,-405.2734375,232.421875,0.0
1694476235.1196725,-1000.0,-1000.0,-862.3046875,-1000.0,0.0
1694476235.1235716,-263.671875,-313.96484375,-675.78125,-268.5546875,0.0
1694476235.1274707,-801.26953125,-822.75390625,-119.62890625,-806.640625,0.0
1694476235.1313698,240.234375,386.71875,-177.734375,414.55078125,0.0
1694476235.135269,-1000.0,-1000.0,-790.0390625,-1000.0,0.0
1694476235.139168,-476.5625,-719.23828125,-814.453125,-679.6875,0.0
1694476235.1430671,-919.43359375,871.58203125,-302.24609375,927.24609375,0.0
1694476235.146966,692.3828125,872.55859375,-153.80859375,904.296875,0.0
1694476235.1509507,-900.390625,-651.3671875,-704.58984375,-609.375,0.0
1694476235.1548498,-986.81640625,-1000.0,-895.5078125,-1000.0,0.0
1694476235.1587489,501.953125,158.69140625,-450.68359375,164.0625,0.0
1694476235.162648,-829.1015625,-796.875,-22.4609375,-782.2265625,0.0
1694476235.166547,-153.3203125,-15.625,-471.19140625,27.34375,0.0
1694476235.1704462,-1000.0,-1000.0,-903.80859375,-1000.0,0.0
1694476235.1743453,-108.88671875,-224.609375,-601.07421875,-241.69921875,0.0
1694476235.1782444,-785.15625,-808.10546875,-8.7890625,-807.6171875,0.0
1694476235.1821434,219.23828125,238.76953125,-251.46484375,239.2578125,0.0
1694476235.1860425,-1000.0,-1000.0,-897.94921875,-1000.0,0.0
1694476235.1899416,-267.578125,-377.9296875,-722.65625,-351.5625,0.0
1694476235.1938405,-803.22265625,-852.05078125,-167.96875,-840.8203125,0.0
1694476235.1978185,344.7265625,490.234375,-249.0234375,521.97265625,0.0
1694476235.2017176,-1000.0,-1000.0,-838.37890625,-1000.0,0.0
1694476235.2056167,-595.703125,-867.1875,-823.73046875,-836.42578125,0.0
1694476235.2095158,999.0234375,685.05859375,-321.77734375,729.98046875,0.0
1694476235.213415,822.265625,999.0234375,-180.6640625,-960.9375,0.0
1694476235.217314,-739.2578125,-484.86328125,-702.1484375,-431.640625,0.0
1694476235.221213,-1000.0,-1000.0,-854.4921875,-1000.0,0.0
1694476235.2251122,339.84375,40.52734375,-427.24609375,70.3125,0.0
1694476235.2290113,-796.38671875,-786.1328125,-135.7421875,-773.92578125,0.0
1694476235.2329104,-30.2734375,108.3984375,-536.1328125,138.18359375,0.0
1694476235.2368095,-1000.0,-1000.0,-903.80859375,-1000.0,0.0
1694476235.2407086,-223.14453125,-250.9765625,-617.1875,-254.8828125,0.0
1694476235.2446797,-803.7109375,-806.640625,-132.8125,-804.6875,0.0
1694476235.2485788,232.421875,251.953125,-356.4453125,241.2109375,0.0
1694476235.252478,-1000.0,-1000.0,-868.65234375,-1000.0,0.0
1694476235.256377,-269.53125,-461.42578125,-731.93359375,-448.2421875,0.0
1694476235.260276,-809.08203125,-898.4375,-183.59375,-889.16015625,0.0
1694476235.2641752,447.75390625,597.16796875,-202.63671875,616.69921875,0.0
1694476235.2680743,-1000.0,-968.75,-776.85546875,-980.46875,0.0
1694476235.2719734,-656.25,-972.16796875,-832.03125,-946.2890625,0.0
1694476235.2758725,933.10546875,517.08984375,-376.46484375,555.17578125,0.0
1694476235.2797716,964.35546875,-893.5546875,-162.59765625,-847.65625,0.0
1694476235.2836707,-511.23046875,-296.38671875,-660.15625,-222.16796875,0.0
1694476235.2875698,-1000.0,-1000.0,-892.08984375,-1000.0,0.0
1694476235.2915719,173.828125,-73.73046875,-548.828125,-54.6875,0.0
1694476235.295471,-771.97265625,-791.50390625,-122.55859375,-779.296875,0.0
1694476235.29937,79.1015625,181.640625,-434.08203125,214.35546875,0.0
1694476235.3032691,-1000.0,-1000.0,-902.83203125,-1000.0,0.0
1694476235.3071682,-249.0234375,-259.765625,-681.640625,-266.6015625,0.0
1694476235.3110673,-805.17578125,-805.6640625,-91.30859375,-801.7578125,0.0
1694476235.3149664,238.28125,295.41015625,-166.50390625,311.03515625,0.0
1694476235.3188655,-1000.0,-1000.0,-848.14453125,-1000.0,0.0
1694476235.3227646,-361.81640625,-561.5234375,-810.546875,-543.9453125,0.0
1694476235.3266637,-847.65625,-970.21484375,-175.29296875,-957.51953125,0.0
1694476235.3305628,550.78125,722.16796875,-125.48828125,756.34765625,0.0
1694476235.334462,-1000.0,-831.0546875,-790.0390625,-816.89453125,0.0
1694476235.3384666,-812.5,-1000.0,-866.2109375,-1000.0,0.0
1694476235.3423657,736.81640625,331.0546875,-367.1875,390.13671875,0.0
1694476235.3462648,-905.76171875,-829.1015625,-115.72265625,-809.5703125,0.0
1694476235.350164,-312.01171875,-150.390625,-609.86328125,-103.515625,0.0
1694476235.354063,-1000.0,-1000.0,-887.20703125,-1000.0,0.0
1694476235.3579621,35.64453125,-163.0859375,-518.5546875,-170.41015625,0.0
1694476235.3618612,-770.01953125,-800.78125,7.8125,-795.41015625,0.0
1694476235.3657603,192.3828125,222.16796875,-347.65625,227.5390625,0.0
1694476235.3696597,-1000.0,-1000.0,-905.76171875,-1000.0,0.0
1694476235.3735588,-262.20703125,-297.36328125,-633.7890625,-269.04296875,0.0
1694476235.3774579,-801.7578125,-817.3828125,-139.6484375,-806.15234375,0.0
1694476235.381357,240.234375,382.32421875,-304.19921875,413.57421875,0.0
1694476235.3853543,-1000.0,-1000.0,-840.33203125,-1000.0,0.0
1694476235.3892534,-464.35546875,-691.89453125,-793.9453125,-651.3671875,0.0
1694476235.3931525,-910.64453125,901.85546875,-281.73828125,957.51953125,0.0
1694476235.3970516,678.22265625,859.375,-209.9609375,889.16015625,0.0
1694476235.4009507,-932.12890625,-670.41015625,-750.9765625,-630.37109375,0.0
1694476235.4048498,-936.03515625,-1000.0,-848.6328125,-1000.0,0.0
1694476235.4087489,580.56640625,197.265625,-428.7109375,209.9609375,0.0
1694476235.412648,-841.30859375,-798.828125,-114.2578125,-781.73828125,0.0
1694476235.416547,-183.10546875,-33.203125,-527.34375,5.859375,0.0
1694476235.4204462,-1000.0,-1000.0,-873.53515625,-1000.0,0.0
1694476235.4243455,-60.546875,-216.30859375,-614.74609375,-240.234375,0.0
1694476235.4282446,-777.34375,-807.12890625,-168.9453125,-808.10546875,0.0
1694476235.4322357,213.8671875,237.3046875,-395.01953125,238.76953125,0.0
1694476235.4361348,-1000.0,-1000.0,-888.18359375,-1000.0,0.0
1694476235.440034,-268.5546875,-362.79296875,-729.4921875,-333.984375,0.0
1694476235.443933,-802.734375,-844.7265625,-153.80859375,-834.47265625,0.0
1694476235.447832,341.796875,467.7734375,-191.40625,509.27734375,0.0
1694476235.4517312,-1000.0,-1000.0,-803.7109375,-1000.0,0.0
1694476235.4556303,-566.40625,-810.05859375,-823.73046875,-791.015625,0.0
1694476235.4595294,-972.16796875,754.39453125,-327.1484375,790.52734375,0.0
1694476235.4634285,784.1796875,972.65625,-41.50390625,-984.86328125,0.0
1694476235.4673276,-793.45703125,-516.11328125,-583.0078125,-458.984375,0.0
1694476235.4712267,-1000.0,-1000.0,-891.11328125,-1000.0,0.0
1694476235.4751258,397.4609375,74.70703125,-454.1015625,93.75,0.0
1694476235.479119,-803.22265625,-786.1328125,-106.4453125,-773.4375,0.0
1694476235.4830182,-54.19921875,90.33203125,-517.08984375,110.83984375,0.0
1694476235.4869175,-1000.0,-1000.0,-908.69140625,-1000.0,0.0
1694476235.4908166,-196.2890625,-248.53515625,-613.76953125,-251.46484375,0.0
1694476235.4947157,-798.828125,-808.10546875,-118.65234375,-805.6640625,0.0
1694476235.4986148,229.4921875,240.72265625,-326.171875,241.2109375,0.0
1694476235.502514,-1000.0,-1000.0,-879.39453125,-1000.0,0.0
1694476235.506413,-270.01953125,-442.87109375,-710.9375,-434.5703125,0.0
1694476235.510312,-808.10546875,-886.23046875,-42.48046875,-879.8828125,0.0
1694476235.5142112,437.98828125,561.5234375,-159.66796875,586.42578125,0.0
1694476235.5181103,-1000.0,-1000.0,-820.3125,-1000.0,0.0
1694476235.5220096,-659.1796875,-942.3828125,-822.265625,-924.8046875,0.0
1694476235.525996,943.84765625,558.10546875,-328.61328125,588.37890625,0.0
1694476235.529895,926.26953125,-910.64453125,-73.2421875,-867.67578125,0.0
1694476235.5337942,-575.1953125,-325.68359375,-619.62890625,-264.6484375,0.0
1694476235.5376933,-1000.0,-1000.0,-880.37109375,-1000.0,0.0
1694476235.5415924,197.265625,-61.5234375,-503.41796875,-45.41015625,0.0
1694476235.5454917,-777.83203125,-791.9921875,-105.95703125,-779.296875,0.0
1694476235.5493908,38.0859375,166.015625,-458.49609375,213.37890625,0.0
1694476235.55329,-1000.0,-1000.0,-866.69921875,-1000.0,0.0
1694476235.557189,-244.140625,-256.8359375,-629.8828125,-264.6484375,0.0
1694476235.561088,-807.6171875,-805.6640625,-188.4765625,-802.24609375,0.0
1694476235.5649872,238.76953125,281.73828125,-327.63671875,278.3203125,0.0
1694476235.5688863,-1000.0,-1000.0,-862.3046875,-1000.0,0.0
1694476235.5728567,-354.98046875,-543.9453125,-784.66796875,-534.66796875,0.0
1694476235.5767558,-843.75,-955.078125,-242.67578125,-951.66015625,0.0
1694476235.5806549,537.109375,701.171875,-197.75390625,730.95703125,0.0
1694476235.5845542,-1000.0,-864.2578125,-766.11328125,-851.5625,0.0
1694476235.5884533,-787.59765625,-1000.0,-849.12109375,-1000.0,0.0
1694476235.5923524,783.69140625,391.6015625,-365.234375,423.828125,0.0
1694476235.5962515,-950.68359375,-841.796875,-46.38671875,-818.84765625,0.0
1694476235.6001506,-398.92578125,-183.10546875,-528.3203125,-137.6953125,0.0
1694476235.6040497,-1000.0,-1000.0,-905.2734375,-1000.0,0.0
1694476235.607949,94.23828125,-141.6015625,-577.1484375,-151.85546875,0.0
1694476235.611848,-767.578125,-798.33984375,-115.234375,-793.45703125,0.0
1694476235.6157472,163.57421875,215.8203125,-412.59765625,225.5859375,0.0
1694476235.61972,-1000.0,-1000.0,-904.78515625,-1000.0,0.0
1694476235.623619,-259.27734375,-292.96875,-693.84765625,-268.06640625,0.0
1694476235.6275182,-802.24609375,-815.4296875,-133.30078125,-805.17578125,0.0
1694476235.6314175,239.74609375,352.05078125,-245.60546875,382.32421875,0.0
1694476235.6353166,-1000.0,-1000.0,-844.23828125,-1000.0,0.0
1694476235.6392157,-437.98828125,-657.2265625,-794.921875,-634.765625,0.0
1694476235.6431148,-887.20703125,944.82421875,-103.02734375,977.05078125,0.0
1694476235.647014,627.9296875,802.24609375,-35.64453125,843.75,0.0
1694476235.650913,-978.515625,-738.28125,-782.2265625,-686.03515625,0.0
1694476235.6548123,-929.19921875,-1000.0,-865.72265625,-1000.0,0.0
1694476235.6587114,581.0546875,211.9140625,-417.96875,213.8671875,0.0
1694476235.6626105,-844.7265625,-801.7578125,-160.64453125,-787.109375,0.0
1694476235.6665766,-209.9609375,-48.33984375,-604.00390625,-24.90234375,0.0
1694476235.6704757,-1000.0,-1000.0,-886.23046875,-1000.0,0.0
1694476235.6743748,-17.578125,-200.68359375,-564.453125,-236.328125,0.0
1694476235.6782742,-771.484375,-804.19921875,-163.0859375,-809.5703125,0.0
1694476235.6821733,208.984375,235.3515625,-422.36328125,238.76953125,0.0
1694476235.6860723,-1000.0,-1000.0,-851.5625,-1000.0,0.0
1694476235.6899714,-268.5546875,-356.4453125,-657.71484375,-325.68359375,0.0
1694476235.6938705,-801.7578125,-840.8203125,-198.73046875,-829.58984375,0.0
1694476235.6977699,329.58984375,444.3359375,-281.73828125,480.95703125,0.0
1694476235.701669,-1000.0,-1000.0,-825.68359375,-1000.0,0.0
1694476235.705568,-540.52734375,-775.87890625,-821.77734375,-765.13671875,0.0
1694476235.7094672,-957.51953125,796.875,-318.359375,818.84765625,0.0
1694476235.7134643,770.5078125,951.171875,-175.29296875,992.67578125,0.0
1694476235.7173634,-801.7578125,-541.50390625,-702.1484375,-489.74609375,0.0
1694476235.7212627,-1000.0,-1000.0,-877.44140625,-1000.0,0.0
1694476235.7251618,404.296875,82.51953125,-442.3828125,110.3515625,0.0
1694476235.729061,-811.5234375,-790.52734375,-78.61328125,-774.90234375,0.0
1694476235.73296,-121.58203125,54.19921875,-484.86328125,85.44921875,0.0
1694476235.7368593,-1000.0,-1000.0,-885.7421875,-1000.0,0.0
1694476235.7407584,-126.953125,-239.2578125,-640.13671875,-248.046875,0.0
1694476235.7446575,-786.1328125,-808.10546875,-177.734375,-807.12890625,0.0
1694476235.7485566,221.19140625,240.72265625,-358.88671875,241.69921875,0.0
1694476235.7524557,-1000.0,-1000.0,-878.41796875,-1000.0,0.0
1694476235.756355,-270.99609375,-434.5703125,-754.39453125,-429.6875,0.0
1694476235.7603452,-806.640625,-880.859375,-148.4375,-876.46484375,0.0
1694476235.7642443,424.8046875,546.875,-165.52734375,574.21875,0.0
1694476235.7681437,-1000.0,-1000.0,-821.77734375,-1000.0,0.0
1694476235.7720428,-626.46484375,-900.87890625,-853.515625,-897.94921875,0.0
1694476235.7759418,971.6796875,628.90625,-310.546875,629.39453125,0.0
1694476235.779841,895.5078125,-945.3125,-48.828125,-890.625,0.0
1694476235.7837403,-611.81640625,-385.7421875,-620.60546875,-303.7109375,0.0
1694476235.7876394,-1000.0,-1000.0,-926.26953125,-1000.0,0.0
1694476235.7915385,213.37890625,-25.390625,-467.28515625,-11.23046875,0.0
1694476235.7954376,-784.1796875,-789.0625,68.84765625,-775.87890625,0.0
1694476235.799337,-12.20703125,148.4375,-426.7578125,192.87109375,0.0
1694476235.803236,-1000.0,-1000.0,-914.55078125,-1000.0,0.0
1694476235.8072197,-238.28125,-254.8828125,-626.46484375,-260.7421875,0.0
1694476235.8111188,-809.08203125,-806.640625,-173.828125,-803.22265625,0.0
1694476235.815018,237.3046875,267.08984375,-346.6796875,241.69921875,0.0
1694476235.8189173,-1000.0,-1000.0,-855.95703125,-1000.0,0.0
1694476235.8228164,-314.453125,-523.92578125,-754.39453125,-513.18359375,0.0
1694476235.8267155,-828.61328125,-935.546875,-196.2890625,-934.08203125,0.0
1694476235.8306146,513.671875,650.87890625,-178.7109375,682.6171875,0.0
1694476235.834514,-1000.0,-913.57421875,-795.41015625,-898.92578125,0.0
1694476235.838413,-782.2265625,-1000.0,-804.19921875,-1000.0,0.0
1694476235.842312,794.921875,407.2265625,-335.44921875,422.36328125,0.0
1694476235.8462112,-969.7265625,-848.6328125,-165.52734375,-822.265625,0.0
1694476235.8501105,-433.59375,-205.56640625,-623.046875,-155.2734375,0.0
1694476235.8540967,-1000.0,-1000.0,-873.53515625,-1000.0,0.0
